Time (s),Current (uA)
0.0,826.32
0.01,684.45
0.02,698.92
0.03,758.37
0.04,705.6
0.05,711.5
0.06,710.1
0.07,742.87
0.08,709.52
0.09,724.56
0.1,721.19
0.11,698.76
0.12,721.63
0.13,777.07
0.14,684.19
0.15,703.77
0.16,727.6
0.17,761.7
0.18,709.77
0.19,691.52
0.2,758.98
0.21,747.48
0.22,702.39
0.23,726.44
0.24,719.08
0.25,761.72
0.26,685.53
0.27,693.66
0.28,733.89
0.29,754.01
0.3,726.04
0.31,713.67
0.32,666.98
0.33,731.5
0.34,732.38
0.35,707.49
0.36,731.0
0.37,700.25
0.38,679.04
0.39,763.91
0.4,653.41
0.41,704.97
0.42,750.77
0.43,716.05
0.44,698.43
0.45,745.35
0.46,696.28
0.47,732.69
0.48,740.57
0.49,677.12
0.5,743.33
0.51,699.9
0.52,661.27
0.53,770.24
0.54,704.75
0.55,670.34
0.56,655.42
0.57,704.02
0.58,722.68
0.59,726.55
0.6,666.72
0.61,706.55
0.62,675.13
0.63,699.86
0.64,679.44
0.65,722.91
0.66,733.42
0.67,713.67
0.68,711.76
0.69,714.96
0.7,712.27
0.71,737.77
0.72,741.61
0.73,675.02
0.74,743.85
0.75,717.17
0.76,777.36
0.77,705.75
0.78,819.31
0.79,692.13
0.8,721.53
0.81,768.11
0.82,741.69
0.83,740.16
0.84,687.81
0.85,726.33
0.86,736.58
0.87,736.32
0.88,676.64
0.89,710.19
0.9,714.14
0.91,742.66
0.92,678.89
0.93,699.12
0.94,749.97
0.95,703.61
0.96,690.89
0.97,714.08
0.98,703.42
0.99,734.35
1.0,744.69
1.01,650.77
1.02,719.29
1.03,638.64
1.04,736.25
1.05,729.69
1.06,674.75
1.07,696.59
1.08,734.51
1.09,723.8
1.1,693.51
1.11,708.24
1.12,686.69
1.13,690.02
1.14,775.6
1.15,699.49
1.16,674.82
1.17,781.6
1.18,700.68
1.19,693.88
1.2,731.42
1.21,673.18
1.22,728.95
1.23,784.0
1.24,691.99
1.25,670.26
1.26,748.8
1.27,676.08
1.28,765.73
1.29,709.77
1.3,693.62
1.31,708.52
1.32,711.57
1.33,718.11
1.34,678.79
1.35,660.31
1.36,770.85
1.37,644.02
1.38,725.17
1.39,737.81
1.4,675.58
1.41,668.77
1.42,738.8
1.43,705.92
1.44,737.9
1.45,707.19
1.46,697.19
1.47,758.26
1.48,721.93
1.49,669.18
1.5,751.93
1.51,696.22
1.52,731.13
1.53,718.43
1.54,673.46
1.55,696.66
1.56,699.04
1.57,673.21
1.58,771.51
1.59,695.71
1.6,701.03
1.61,784.59
1.62,665.02
1.63,727.14
1.64,747.69
1.65,720.68
1.66,673.79
1.67,719.02
1.68,715.58
1.69,678.69
1.7,724.91
1.71,732.24
1.72,709.6
1.73,718.47
1.74,748.34
1.75,650.66
1.76,730.78
1.77,713.88
1.78,718.65
1.79,680.54
1.8,739.78
1.81,668.03
1.82,722.69
1.83,761.65
1.84,666.35
1.85,721.94
1.86,726.12
1.87,703.37
1.88,739.82
1.89,710.24
1.9,741.9
1.91,682.17
1.92,748.28
1.93,702.13
1.94,724.62
1.95,746.34
1.96,702.54
1.97,757.81
1.98,710.36
1.99,661.59
2.0,775.25
2.01,707.95
2.02,699.39
2.03,737.95
2.04,668.44
2.05,736.16
2.06,701.51
2.07,719.12
2.08,644.67
2.09,705.85
2.1,722.0
2.11,705.27
2.12,700.53
2.13,715.76
2.14,676.51
2.15,703.18
2.16,716.0
2.17,692.57
2.18,735.9
2.19,708.18
2.2,720.51
2.21,716.28
2.22,770.99
2.23,665.23
2.24,719.59
2.25,762.96
2.26,708.83
2.27,716.04
2.28,668.97
2.29,731.86
2.3,734.57
2.31,738.07
2.32,673.47
2.33,719.41
2.34,755.2
2.35,691.25
2.36,776.4
2.37,701.41
2.38,736.79
2.39,687.94
2.4,694.21
2.41,726.18
2.42,700.22
2.43,734.58
2.44,671.78
2.45,742.73
2.46,744.39
2.47,663.55
2.48,737.99
2.49,699.67
2.5,694.1
2.51,754.02
2.52,655.38
2.53,752.9
2.54,668.62
2.55,705.17
2.56,702.52
2.57,724.79
2.58,691.67
2.59,745.41
2.6,695.27
2.61,670.12
2.62,712.01
2.63,741.06
2.64,734.61
2.65,698.05
2.66,737.09
2.67,698.52
2.68,703.49
2.69,722.25
2.7,694.8
2.71,641.95
2.72,707.37
2.73,762.71
2.74,716.39
2.75,717.13
2.76,772.8
2.77,734.32
2.78,706.84
2.79,726.46
2.8,720.23
2.81,712.74
2.82,779.97
2.83,707.82
2.84,739.75
2.85,747.29
2.86,715.32
2.87,634.83
2.88,779.25
2.89,715.66
2.9,716.05
2.91,714.52
2.92,736.12
2.93,716.13
2.94,715.51
2.95,696.9
2.96,778.71
2.97,716.3
2.98,659.66
2.99,745.78
3.0,721.48
3.01,725.35
3.02,739.03
3.03,671.55
3.04,712.96
3.05,767.8
3.06,690.32
3.07,722.42
3.08,730.76
3.09,742.1
3.1,728.25
3.11,692.33
3.12,754.27
3.13,780.2
3.14,667.35
3.15,693.12
3.16,763.01
3.17,753.93
3.18,726.03
3.19,710.43
3.2,767.08
3.21,717.09
3.22,691.63
3.23,689.31
3.24,670.95
3.25,742.15
3.26,695.82
3.27,711.41
3.28,772.95
3.29,707.7
3.3,721.7
3.31,736.03
3.32,690.37
3.33,660.68
3.34,713.55
3.35,751.53
3.36,652.92
3.37,742.76
3.38,681.78
3.39,709.65
3.4,712.13
3.41,674.47
3.42,740.09
3.43,733.89
3.44,720.6
3.45,640.62
3.46,720.59
3.47,692.19
3.48,709.33
3.49,696.55
3.5,669.14
3.51,679.83
3.52,756.45
3.53,648.86
3.54,726.42
3.55,635.26
3.56,749.41
3.57,734.37
3.58,688.75
3.59,711.0
3.6,752.16
3.61,761.29
3.62,697.31
3.63,742.86
3.64,746.94
3.65,730.31
3.66,698.12
3.67,733.55
3.68,717.55
3.69,713.44
3.7,729.04
3.71,773.1
3.72,678.14
3.73,703.32
3.74,755.93
3.75,730.19
3.76,708.57
3.77,776.6
3.78,731.4
3.79,726.24
3.8,761.03
3.81,713.56
3.82,689.85
3.83,763.52
3.84,694.6
3.85,785.82
3.86,698.42
3.87,719.23
3.88,783.46
3.89,685.69
3.9,695.69
3.91,797.34
3.92,683.85
3.93,713.69
3.94,739.62
3.95,705.07
3.96,697.27
3.97,786.65
3.98,722.05
3.99,674.62
4.0,764.47
4.01,724.98
4.02,733.81
4.03,771.01
4.04,693.58
4.05,768.03
4.06,680.54
4.07,705.55
4.08,736.53
4.09,689.26
4.1,686.27
4.11,718.97
4.12,665.4
4.13,704.77
4.14,722.0
4.15,721.22
4.16,701.7
4.17,726.47
4.18,709.74
4.19,674.47
4.2,746.16
4.21,692.6
4.22,711.63
4.23,695.12
4.24,725.31
4.25,687.01
4.26,695.22
4.27,698.62
4.28,724.03
4.29,727.99
4.3,703.55
4.31,710.57
4.32,729.2
4.33,698.28
4.34,727.31
4.35,730.92
4.36,697.29
4.37,728.63
4.38,697.05
4.39,684.12
4.4,715.55
4.41,701.23
4.42,746.55
4.43,708.42
4.44,690.33
4.45,735.47
4.46,708.67
4.47,727.13
4.48,676.71
4.49,705.59
4.5,752.65
4.51,660.11
4.52,731.46
4.53,715.87
4.54,715.09
4.55,746.96
4.56,707.76
4.57,695.73
4.58,678.9
4.59,723.01
4.6,724.57
4.61,679.22
4.62,736.17
4.63,719.14
4.64,701.44
4.65,731.76
4.66,737.26
4.67,662.73
4.68,745.69
4.69,733.15
4.7,691.81
4.71,744.65
4.72,747.42
4.73,732.75
4.74,693.83
4.75,712.46
4.76,752.19
4.77,716.81
4.78,692.57
4.79,677.71
4.8,771.82
4.81,677.25
4.82,749.96
4.83,685.79
4.84,687.94
4.85,715.75
4.86,767.93
4.87,692.93
4.88,678.83
4.89,714.34
4.9,748.26
4.91,693.25
4.92,720.11
4.93,697.33
4.94,750.73
4.95,699.39
4.96,667.37
4.97,734.59
4.98,679.03
4.99,722.39
5.0,713.53
5.01,688.94
5.02,716.46
5.03,719.06
5.04,712.9
5.05,677.34
5.06,726.65
5.07,720.54
5.08,724.51
5.09,693.74
5.1,721.82
5.11,686.76
5.12,720.18
5.13,754.31
5.14,740.1
5.15,714.94
5.16,724.34
5.17,686.93
5.18,706.26
5.19,678.2
5.2,726.77
5.21,699.89
5.22,727.07
5.23,697.58
5.24,696.5
5.25,718.25
5.26,745.72
5.27,681.49
5.28,702.02
5.29,724.09
5.3,708.24
5.31,696.31
5.32,693.54
5.33,706.29
5.34,702.34
5.35,715.87
5.36,666.6
5.37,734.86
5.38,690.72
5.39,705.7
5.4,714.13
5.41,691.37
5.42,690.99
5.43,680.37
5.44,725.42
5.45,701.54
5.46,729.75
5.47,719.58
5.48,715.86
5.49,720.87
5.5,687.51
5.51,724.29
5.52,741.89
5.53,717.07
5.54,719.84
5.55,704.18
5.56,723.55
5.57,669.76
5.58,720.44
5.59,718.66
5.6,708.43
5.61,678.71
5.62,723.6
5.63,701.69
5.64,703.86
5.65,745.98
5.66,691.4
5.67,674.71
5.68,751.61
5.69,748.97
5.7,665.06
5.71,738.92
5.72,723.63
5.73,702.71
5.74,735.59
5.75,706.22
5.76,750.03
5.77,718.85
5.78,707.54
5.79,737.92
5.8,724.81
5.81,720.03
5.82,769.23
5.83,716.41
5.84,654.61
5.85,771.75
5.86,708.42
5.87,729.91
5.88,641.88
5.89,755.46
5.9,735.75
5.91,732.45
5.92,695.25
5.93,740.31
5.94,740.63
5.95,709.89
5.96,714.46
5.97,744.26
5.98,720.51
5.99,787.3
6.0,665.64
6.01,725.09
6.02,786.39
6.03,676.65
6.04,729.44
6.05,730.82
6.06,681.19
6.07,715.03
6.08,689.27
6.09,755.66
6.1,726.77
6.11,662.97
6.12,708.84
6.13,691.84
6.14,659.72
6.15,723.41
6.16,701.22
6.17,696.35
6.18,675.02
6.19,723.0
6.2,704.74
6.21,737.94
6.22,703.53
6.23,709.49
6.24,679.24
6.25,762.87
6.26,721.54
6.27,715.01
6.28,734.29
6.29,726.9
6.3,757.59
6.31,679.85
6.32,660.76
6.33,726.78
6.34,721.1
6.35,695.26
6.36,719.29
6.37,719.11
6.38,691.67
6.39,694.98
6.4,735.7
6.41,670.3
6.42,737.41
6.43,708.27
6.44,724.35
6.45,704.94
6.46,719.69
6.47,699.6
6.48,684.63
6.49,743.75
6.5,645.24
6.51,711.89
6.52,729.87
6.53,730.09
6.54,724.02
6.55,722.1
6.56,644.69
6.57,744.69
6.58,716.54
6.59,682.55
6.6,780.73
6.61,715.35
6.62,729.57
6.63,710.77
6.64,717.82
6.65,705.89
6.66,771.7
6.67,722.67
6.68,735.01
6.69,704.04
6.7,689.03
6.71,774.12
6.72,696.24
6.73,706.62
6.74,736.34
6.75,701.16
6.76,744.14
6.77,736.7
6.78,675.18
6.79,734.06
6.8,777.79
6.81,696.93
6.82,746.8
6.83,684.52
6.84,708.77
6.85,736.79
6.86,791.01
6.87,666.27
6.88,733.85
6.89,720.27
6.9,677.81
6.91,758.53
6.92,706.6
6.93,726.9
6.94,685.49
6.95,713.62
6.96,758.55
6.97,733.24
6.98,648.48
6.99,696.65
7.0,709.86
7.01,709.44
7.02,709.66
7.03,730.78
7.04,689.85
7.05,734.1
7.06,722.59
7.07,706.76
7.08,691.96
7.09,713.12
7.1,717.2
7.11,730.34
7.12,714.33
7.13,692.67
7.14,731.54
7.15,683.64
7.16,688.5
7.17,684.69
7.18,766.02
7.19,730.82
7.2,680.12
7.21,721.64
7.22,711.0
7.23,711.45
7.24,736.9
7.25,680.69
7.26,719.54
7.27,677.2
7.28,711.75
7.29,724.91
7.3,743.56
7.31,689.74
7.32,712.6
7.33,728.89
7.34,713.87
7.35,669.29
7.36,687.35
7.37,735.04
7.38,733.93
7.39,685.03
7.4,728.31
7.41,725.22
7.42,655.68
7.43,718.43
7.44,798.23
7.45,693.1
7.46,700.57
7.47,713.84
7.48,726.61
7.49,691.83
7.5,729.06
7.51,724.77
7.52,681.84
7.53,742.56
7.54,683.18
7.55,788.21
7.56,722.7
7.57,684.54
7.58,720.05
7.59,698.52
7.6,736.66
7.61,718.39
7.62,711.97
7.63,691.14
7.64,745.35
7.65,665.04
7.66,767.03
7.67,679.84
7.68,718.82
7.69,730.43
7.7,675.8
7.71,706.73
7.72,723.53
7.73,717.5
7.74,675.59
7.75,670.52
7.76,734.56
7.77,690.02
7.78,711.04
7.79,748.58
7.8,652.95
7.81,729.89
7.82,663.94
7.83,716.2
7.84,750.39
7.85,639.3
7.86,733.39
7.87,694.76
7.88,682.36
7.89,707.32
7.9,731.75
7.91,659.42
7.92,708.73
7.93,740.18
7.94,652.55
7.95,694.1
7.96,763.77
7.97,666.71
7.98,734.01
7.99,752.95
8.0,689.95
8.01,709.3
8.02,699.38
8.03,699.85
8.04,733.18
8.05,685.47
8.06,686.82
8.07,749.28
8.08,702.73
8.09,670.84
8.1,772.38
8.11,692.91
8.12,712.97
8.13,788.4
8.14,686.66
8.15,744.83
8.16,713.45
8.17,704.29
8.18,718.5
8.19,740.48
8.2,715.04
8.21,673.79
8.22,704.98
8.23,735.68
8.24,711.7
8.25,713.53
8.26,720.89
8.27,775.08
8.28,688.56
8.29,706.45
8.3,675.38
8.31,734.58
8.32,730.67
8.33,667.83
8.34,733.51
8.35,711.67
8.36,705.06
8.37,721.46
8.38,674.7
8.39,729.04
8.4,750.2
8.41,740.75
8.42,688.68
8.43,719.95
8.44,686.36
8.45,713.0
8.46,628.34
8.47,761.24
8.48,693.06
8.49,699.05
8.5,698.5
8.51,711.22
8.52,723.45
8.53,712.3
8.54,722.77
8.55,656.19
8.56,711.28
8.57,778.19
8.58,660.72
8.59,724.37
8.6,771.57
8.61,716.88
8.62,708.01
8.63,709.06
8.64,743.56
8.65,733.57
8.66,719.64
8.67,732.3
8.68,725.87
8.69,689.66
8.7,708.38
8.71,696.73
8.72,674.9
8.73,786.33
8.74,729.6
8.75,723.14
8.76,750.8
8.77,733.37
8.78,727.25
8.79,718.01
8.8,687.95
8.81,719.64
8.82,678.37
8.83,682.5
8.84,774.89
8.85,716.56
8.86,720.55
8.87,709.63
8.88,765.11
8.89,687.41
8.9,731.0
8.91,763.85
8.92,730.76
8.93,691.0
8.94,726.59
8.95,721.7
8.96,685.07
8.97,704.71
8.98,756.2
8.99,740.41
9.0,750.54
9.01,710.71
9.02,689.32
9.03,697.95
9.04,822.88
9.05,712.17
9.06,689.0
9.07,732.98
9.08,761.38
9.09,725.97
9.1,677.62
9.11,727.96
9.12,729.1
9.13,695.04
9.14,712.14
9.15,758.61
9.16,753.62
9.17,703.36
9.18,691.3
9.19,713.17
9.2,722.61
9.21,696.42
9.22,709.34
9.23,655.37
9.24,732.61
9.25,718.56
9.26,686.69
9.27,724.5
9.28,737.4
9.29,676.59
9.3,683.01
9.31,752.62
9.32,689.88
9.33,680.58
9.34,734.34
9.35,742.09
9.36,753.78
9.37,628.05
9.38,729.4
9.39,716.55
9.4,720.31
9.41,719.72
9.42,724.09
9.43,665.59
9.44,733.15
9.45,726.06
9.46,683.36
9.47,690.0
9.48,725.1
9.49,767.26
9.5,684.54
9.51,783.68
9.52,737.6
9.53,724.37
9.54,637.27
9.55,712.52
9.56,716.12
9.57,749.71
9.58,717.43
9.59,756.82
9.6,738.27
9.61,673.81
9.62,712.64
9.63,764.04
9.64,701.65
9.65,680.71
9.66,713.25
9.67,723.02
9.68,756.66
9.69,714.57
9.7,681.1
9.71,742.76
9.72,745.94
9.73,660.96
9.74,728.54
9.75,720.35
9.76,709.46
9.77,746.93
9.78,743.1
9.79,673.72
9.8,724.21
9.81,736.92
9.82,699.15
9.83,723.71
9.84,682.5
9.85,717.45
9.86,731.66
9.87,667.87
9.88,691.95
9.89,727.84
9.9,737.86
9.91,720.0
9.92,694.95
9.93,751.19
9.94,741.28
9.95,674.59
9.96,747.89
9.97,727.06
9.98,685.98
9.99,711.8
10.0,737.37
10.01,709.04
10.02,680.14
10.03,708.21
10.04,756.5
10.05,711.24
10.06,676.58
10.07,713.81
10.08,724.25
10.09,684.82
10.1,679.33
10.11,760.5
10.12,683.62
10.13,741.06
10.14,670.55
10.15,744.46
10.16,717.2
10.17,706.5
10.18,643.56
10.19,710.46
10.2,744.4
10.21,663.7
10.22,744.59
10.23,705.96
10.24,700.36
10.25,683.16
10.26,754.72
10.27,660.3
10.28,728.87
10.29,722.22
10.3,727.4
10.31,724.52
10.32,703.02
10.33,725.75
10.34,739.04
10.35,633.28
10.36,726.39
10.37,701.78
10.38,713.74
10.39,707.29
10.4,718.49
10.41,724.35
10.42,713.21
10.43,742.28
10.44,696.24
10.45,702.38
10.46,691.13
10.47,703.83
10.48,732.91
10.49,728.18
10.5,706.9
10.51,716.82
10.52,762.45
10.53,688.63
10.54,704.96
10.55,706.54
10.56,707.36
10.57,733.83
10.58,724.55
10.59,714.18
10.6,679.87
10.61,727.22
10.62,645.83
10.63,743.16
10.64,678.75
10.65,704.39
10.66,741.07
10.67,704.68
10.68,703.2
10.69,698.58
10.7,720.12
10.71,672.78
10.72,675.43
10.73,712.33
10.74,740.54
10.75,739.84
10.76,681.91
10.77,709.52
10.78,702.94
10.79,716.26
10.8,658.83
10.81,728.09
10.82,689.99
10.83,680.66
10.84,726.87
10.85,720.0
10.86,732.07
10.87,698.52
10.88,684.6
10.89,724.64
10.9,705.83
10.91,760.14
10.92,700.63
10.93,707.39
10.94,703.73
10.95,674.52
10.96,712.64
10.97,786.58
10.98,703.71
10.99,701.27
11.0,740.49
11.01,676.19
11.02,718.19
11.03,683.86
11.04,692.98
11.05,744.69
11.06,741.01
11.07,649.02
11.08,777.93
11.09,682.12
11.1,699.29
11.11,738.29
11.12,680.0
11.13,686.8
11.14,762.72
11.15,664.36
11.16,701.13
11.17,747.38
11.18,688.93
11.19,722.31
11.2,733.17
11.21,740.34
11.22,688.13
11.23,738.28
11.24,732.28
11.25,697.31
11.26,725.88
11.27,734.39
11.28,699.19
11.29,747.49
11.3,704.07
11.31,708.7
11.32,731.31
11.33,738.52
11.34,705.06
11.35,700.9
11.36,741.63
11.37,663.64
11.38,700.54
11.39,758.32
11.4,705.57
11.41,664.17
11.42,723.1
11.43,749.87
11.44,704.28
11.45,690.61
11.46,690.62
11.47,708.87
11.48,745.86
11.49,734.08
11.5,679.98
11.51,712.31
11.52,735.34
11.53,753.82
11.54,752.99
11.55,687.41
11.56,727.59
11.57,841.95
11.58,651.19
11.59,759.75
11.6,675.22
11.61,755.92
11.62,652.21
11.63,740.79
11.64,726.64
11.65,755.69
11.66,724.19
11.67,694.86
11.68,722.53
11.69,686.68
11.7,754.57
11.71,762.51
11.72,699.16
11.73,674.91
11.74,743.55
11.75,705.94
11.76,678.55
11.77,743.76
11.78,732.25
11.79,715.35
11.8,723.53
11.81,707.48
11.82,734.64
11.83,684.32
11.84,722.89
11.85,791.32
11.86,720.18
11.87,687.25
11.88,755.04
11.89,656.83
11.9,692.93
11.91,752.36
11.92,736.99
11.93,666.19
11.94,720.61
11.95,740.88
11.96,665.34
11.97,771.95
11.98,673.63
11.99,738.07
12.0,734.74
12.01,820.02
12.02,678.65
12.03,735.7
12.04,722.11
12.05,734.19
12.06,687.12
12.07,790.91
12.08,672.81
12.09,760.6
12.1,706.21
12.11,668.22
12.12,732.18
12.13,710.72
12.14,712.84
12.15,683.1
12.16,694.27
12.17,685.29
12.18,698.67
12.19,715.17
12.2,708.35
12.21,716.46
12.22,693.85
12.23,693.02
12.24,670.64
12.25,732.13
12.26,699.03
12.27,708.7
12.28,706.53
12.29,662.57
12.3,725.94
12.31,715.39
12.32,737.19
12.33,739.58
12.34,704.5
12.35,696.47
12.36,721.93
12.37,715.16
12.38,663.33
12.39,751.52
12.4,690.97
12.41,766.35
12.42,691.42
12.43,672.38
12.44,718.05
12.45,731.18
12.46,746.54
12.47,690.27
12.48,724.67
12.49,726.08
12.5,707.13
12.51,760.34
12.52,727.65
12.53,681.5
12.54,748.53
12.55,705.22
12.56,738.34
12.57,727.16
12.58,735.28
12.59,774.66
12.6,717.9
12.61,786.96
12.62,703.27
12.63,688.49
12.64,773.26
12.65,691.09
12.66,753.36
12.67,739.0
12.68,704.08
12.69,713.84
12.7,730.59
12.71,669.41
12.72,698.22
12.73,726.74
12.74,721.81
12.75,685.24
12.76,709.56
12.77,792.49
12.78,680.21
12.79,745.07
12.8,641.32
12.81,744.75
12.82,716.99
12.83,686.72
12.84,698.41
12.85,755.72
12.86,721.39
12.87,730.25
12.88,681.29
12.89,728.1
12.9,707.97
12.91,754.75
12.92,696.62
12.93,674.03
12.94,748.8
12.95,703.95
12.96,739.97
12.97,714.58
12.98,723.27
12.99,651.59
13.0,751.06
13.01,667.25
13.02,747.17
13.03,723.61
13.04,701.96
13.05,720.72
13.06,673.51
13.07,727.98
13.08,701.42
13.09,741.86
13.1,696.68
13.11,717.98
13.12,687.81
13.13,691.98
13.14,707.17
13.15,751.05
13.16,660.34
13.17,660.17
13.18,760.78
13.19,702.99
13.2,753.78
13.21,703.66
13.22,750.46
13.23,683.5
13.24,663.0
13.25,725.89
13.26,692.61
13.27,720.8
13.28,720.42
13.29,736.75
13.3,696.79
13.31,683.74
13.32,734.12
13.33,723.32
13.34,693.24
13.35,750.25
13.36,683.32
13.37,710.52
13.38,739.16
13.39,715.86
13.4,723.54
13.41,705.96
13.42,696.76
13.43,752.83
13.44,680.86
13.45,697.74
13.46,754.75
13.47,719.8
13.48,675.75
13.49,649.87
13.5,730.93
13.51,728.85
13.52,713.84
13.53,688.87
13.54,683.2
13.55,760.65
13.56,690.95
13.57,682.45
13.58,717.3
13.59,695.31
13.6,734.86
13.61,687.71
13.62,659.75
13.63,710.35
13.64,726.65
13.65,692.97
13.66,740.2
13.67,695.72
13.68,708.81
13.69,745.3
13.7,678.79
13.71,690.87
13.72,724.09
13.73,736.51
13.74,736.59
13.75,712.84
13.76,713.97
13.77,706.78
13.78,723.37
13.79,690.67
13.8,746.83
13.81,699.93
13.82,731.63
13.83,709.4
13.84,715.31
13.85,715.55
13.86,696.6
13.87,750.21
13.88,665.28
13.89,737.22
13.9,707.05
13.91,780.4
13.92,678.22
13.93,715.54
13.94,751.44
13.95,659.64
13.96,757.13
13.97,730.43
13.98,697.99
13.99,698.34
14.0,688.25
14.01,690.91
14.02,726.6
14.03,730.3
14.04,692.04
14.05,700.93
14.06,717.86
14.07,693.01
14.08,699.91
14.09,752.64
14.1,699.91
14.11,714.06
14.12,720.1
14.13,651.3
14.14,708.48
14.15,718.43
14.16,700.69
14.17,717.31
14.18,752.99
14.19,683.24
14.2,679.93
14.21,706.63
14.22,754.04
14.23,691.67
14.24,695.62
14.25,688.57
14.26,753.34
14.27,722.92
14.28,688.64
14.29,701.2
14.3,732.79
14.31,696.17
14.32,696.71
14.33,712.6
14.34,750.88
14.35,714.52
14.36,692.05
14.37,743.06
14.38,787.92
14.39,701.43
14.4,740.01
14.41,676.41
14.42,764.19
14.43,691.99
14.44,765.36
14.45,710.0
14.46,716.34
14.47,760.5
14.48,688.51
14.49,715.13
14.5,717.87
14.51,726.16
14.52,767.8
14.53,745.6
14.54,681.05
14.55,754.36
14.56,728.64
14.57,699.33
14.58,776.38
14.59,689.15
14.6,709.19
14.61,735.89
14.62,694.88
14.63,716.53
14.64,757.11
14.65,725.77
14.66,714.52
14.67,724.36
14.68,714.13
14.69,785.9
14.7,686.24
14.71,710.11
14.72,734.76
14.73,718.98
14.74,731.13
14.75,739.08
14.76,717.89
14.77,735.24
14.78,759.72
14.79,748.08
14.8,699.09
14.81,731.43
14.82,741.79
14.83,699.91
14.84,720.18
14.85,723.06
14.86,715.49
14.87,736.96
14.88,700.63
14.89,709.21
14.9,718.93
14.91,703.29
14.92,692.12
14.93,717.41
14.94,701.17
14.95,676.02
14.96,700.81
14.97,710.54
14.98,722.38
14.99,736.93
15.0,702.97
15.01,734.68
15.02,729.04
15.03,712.64
15.04,689.04
15.05,729.53
15.06,751.16
15.07,690.21
15.08,737.53
15.09,713.55
15.1,693.83
15.11,724.53
15.12,712.88
15.13,690.47
15.14,702.62
15.15,668.22
15.16,786.69
15.17,671.77
15.18,784.51
15.19,759.7
15.2,699.44
15.21,775.29
15.22,713.57
15.23,683.82
15.24,774.65
15.25,727.89
15.26,686.22
15.27,736.79
15.28,714.79
15.29,742.53
15.3,764.5
15.31,710.32
15.32,682.89
15.33,755.95
15.34,733.7
15.35,704.39
15.36,740.92
15.37,726.94
15.38,757.93
15.39,699.74
15.4,728.07
15.41,702.87
15.42,742.26
15.43,722.67
15.44,723.26
15.45,735.82
15.46,648.86
15.47,781.77
15.48,683.43
15.49,713.65
15.5,688.46
15.51,733.86
15.52,646.81
15.53,761.56
15.54,733.86
15.55,737.63
15.56,698.62
15.57,713.47
15.58,750.44
15.59,679.88
15.6,703.47
15.61,735.92
15.62,704.33
15.63,691.07
15.64,742.31
15.65,720.53
15.66,729.13
15.67,722.74
15.68,713.65
15.69,729.91
15.7,691.2
15.71,732.03
15.72,704.84
15.73,727.89
15.74,650.34
15.75,731.79
15.76,673.89
15.77,775.12
15.78,709.17
15.79,751.26
15.8,682.55
15.81,673.9
15.82,715.57
15.83,695.44
15.84,756.4
15.85,711.07
15.86,693.58
15.87,724.2
15.88,700.47
15.89,709.02
15.9,683.36
15.91,686.76
15.92,735.53
15.93,700.19
15.94,717.45
15.95,700.1
15.96,754.9
15.97,669.88
15.98,715.75
15.99,685.34
16.0,713.39
16.01,709.57
16.02,698.94
16.03,762.02
16.04,653.19
16.05,740.23
16.06,737.48
16.07,691.06
16.08,760.98
16.09,670.79
16.1,737.52
16.11,739.89
16.12,721.41
16.13,656.78
16.14,730.37
16.15,718.98
16.16,732.08
16.17,711.96
16.18,738.54
16.19,729.39
16.2,742.92
16.21,691.42
16.22,729.97
16.23,673.31
16.24,676.37
16.25,720.1
16.26,713.08
16.27,717.76
16.28,695.43
16.29,722.95
16.3,703.88
16.31,736.28
16.32,676.49
16.33,694.0
16.34,751.3
16.35,711.22
16.36,689.59
16.37,694.96
16.38,731.5
16.39,698.1
16.4,679.07
16.41,703.32
16.42,729.31
16.43,700.47
16.44,669.34
16.45,712.95
16.46,744.33
16.47,645.53
16.48,722.56
16.49,711.58
16.5,754.33
16.51,694.65
16.52,698.91
16.53,787.63
16.54,681.54
16.55,800.29
16.56,686.2
16.57,699.7
16.58,741.54
16.59,728.73
16.6,672.24
16.61,732.5
16.62,696.67
16.63,736.67
16.64,676.53
16.65,756.5
16.66,708.63
16.67,719.31
16.68,655.49
16.69,736.78
16.7,736.9
16.71,671.75
16.72,742.81
16.73,715.9
16.74,718.78
16.75,696.02
16.76,692.82
16.77,752.8
16.78,698.11
16.79,713.24
16.8,670.72
16.81,730.32
16.82,686.88
16.83,728.47
16.84,700.98
16.85,727.24
16.86,676.98
16.87,727.44
16.88,726.16
16.89,664.2
16.9,726.35
16.91,699.03
16.92,699.9
16.93,742.93
16.94,686.69
16.95,698.4
16.96,757.71
16.97,700.43
16.98,668.66
16.99,696.62
17.0,674.16
17.01,726.13
17.02,701.88
17.03,686.64
17.04,763.18
17.05,700.13
17.06,712.75
17.07,697.38
17.08,729.9
17.09,696.85
17.1,655.45
17.11,730.6
17.12,706.91
17.13,691.54
17.14,763.45
17.15,688.3
17.16,704.72
17.17,709.97
17.18,724.73
17.19,721.4
17.2,722.24
17.21,681.97
17.22,678.24
17.23,732.13
17.24,679.43
17.25,760.07
17.26,678.91
17.27,700.58
17.28,710.43
17.29,762.13
17.3,684.21
17.31,696.75
17.32,783.9
17.33,693.97
17.34,680.35
17.35,807.6
17.36,714.02
17.37,687.43
17.38,770.18
17.39,653.82
17.4,761.93
17.41,730.16
17.42,685.36
17.43,716.64
17.44,710.94
17.45,694.36
17.46,782.84
17.47,691.88
17.48,716.27
17.49,730.67
17.5,684.13
17.51,731.49
17.52,721.65
17.53,719.59
17.54,757.5
17.55,693.12
17.56,736.78
17.57,719.78
17.58,708.54
17.59,760.37
17.6,747.0
17.61,723.69
17.62,776.31
17.63,720.64
17.64,720.2
17.65,731.45
17.66,753.24
17.67,676.59
17.68,735.67
17.69,690.26
17.7,669.22
17.71,723.48
17.72,687.95
17.73,693.64
17.74,686.39
17.75,675.32
17.76,729.72
17.77,690.94
17.78,675.28
17.79,766.03
17.8,674.42
17.81,732.2
17.82,721.28
17.83,693.11
17.84,713.3
17.85,712.74
17.86,688.21
17.87,719.01
17.88,728.62
17.89,705.13
17.9,732.76
17.91,672.79
17.92,719.72
17.93,697.16
17.94,678.31
17.95,735.13
17.96,705.33
17.97,725.91
17.98,690.88
17.99,690.08
18.0,714.25
18.01,690.7
18.02,683.11
18.03,696.17
18.04,708.04
18.05,714.28
18.06,759.45
18.07,692.66
18.08,706.18
18.09,691.42
18.1,765.28
18.11,744.76
18.12,648.05
18.13,740.06
18.14,754.26
18.15,700.48
18.16,732.21
18.17,699.94
18.18,683.97
18.19,700.95
18.2,679.98
18.21,701.92
18.22,744.85
18.23,704.21
18.24,713.77
18.25,731.54
18.26,717.91
18.27,767.27
18.28,667.23
18.29,757.74
18.3,757.75
18.31,685.87
18.32,712.45
18.33,713.77
18.34,729.45
18.35,683.69
18.36,714.21
18.37,678.33
18.38,771.62
18.39,698.63
18.4,709.13
18.41,795.25
18.42,730.66
18.43,687.27
18.44,777.61
18.45,674.95
18.46,756.27
18.47,758.74
18.48,700.12
18.49,750.64
18.5,688.4
18.51,742.31
18.52,707.04
18.53,761.55
18.54,716.86
18.55,694.81
18.56,733.56
18.57,689.46
18.58,726.53
18.59,739.97
18.6,714.12
18.61,710.48
18.62,709.92
18.63,725.07
18.64,698.62
18.65,731.86
18.66,677.37
18.67,763.82
18.68,690.86
18.69,747.36
18.7,687.9
18.71,707.64
18.72,720.67
18.73,696.91
18.74,726.97
18.75,679.68
18.76,726.13
18.77,738.61
18.78,701.28
18.79,730.49
18.8,704.85
18.81,744.68
18.82,696.98
18.83,674.47
18.84,727.93
18.85,710.99
18.86,718.25
18.87,758.45
18.88,665.39
18.89,740.56
18.9,699.26
18.91,736.77
18.92,732.39
18.93,673.26
18.94,723.1
18.95,701.45
18.96,716.46
18.97,708.54
18.98,698.3
18.99,678.2
19.0,730.82
19.01,739.93
19.02,738.44
19.03,674.13
19.04,761.21
19.05,727.47
19.06,735.41
19.07,710.25
19.08,670.72
19.09,713.44
19.1,720.07
19.11,696.06
19.12,714.79
19.13,742.4
19.14,693.43
19.15,749.89
19.16,701.44
19.17,697.61
19.18,735.81
19.19,681.71
19.2,729.9
19.21,714.74
19.22,712.25
19.23,743.75
19.24,674.91
19.25,738.53
19.26,689.35
19.27,696.56
19.28,701.86
19.29,710.79
19.3,739.18
19.31,692.45
19.32,698.16
19.33,704.88
19.34,707.43
19.35,663.01
19.36,795.26
19.37,689.62
19.38,689.47
19.39,732.77
19.4,690.06
19.41,727.78
19.42,727.32
19.43,705.64
19.44,697.35
19.45,733.81
19.46,755.83
19.47,704.96
19.48,740.62
19.49,718.47
19.5,705.45
19.51,725.88
19.52,697.46
19.53,665.92
19.54,731.73
19.55,728.07
19.56,690.43
19.57,707.5
19.58,749.0
19.59,687.58
19.6,732.27
19.61,695.67
19.62,742.48
19.63,687.44
19.64,740.62
19.65,708.81
19.66,710.02
19.67,775.75
19.68,708.52
19.69,718.22
19.7,667.11
19.71,692.38
19.72,753.61
19.73,691.35
19.74,761.57
19.75,704.67
19.76,731.3
19.77,740.83
19.78,734.19
19.79,690.61
19.8,733.52
19.81,662.38
19.82,727.43
19.83,709.74
19.84,746.6
19.85,666.04
19.86,713.95
19.87,809.54
19.88,712.28
19.89,712.78
19.9,729.05
19.91,697.76
19.92,730.24
19.93,716.89
19.94,753.66
19.95,728.48
19.96,703.74
19.97,737.16
19.98,691.52
19.99,724.3
20.0,713.23
20.01,688.4
20.02,729.74
20.03,733.11
20.04,656.72
20.05,724.7
20.06,696.32
20.07,686.7
20.08,740.98
20.09,683.54
20.1,682.53
20.11,717.81
20.12,701.73
20.13,708.35
20.14,733.63
20.15,704.7
20.16,715.95
20.17,696.96
20.18,718.87
20.19,720.19
20.2,733.45
20.21,704.9
20.22,695.56
20.23,800.13
20.24,700.84
20.25,733.82
20.26,750.16
20.27,678.03
20.28,762.12
20.29,716.71
20.3,710.77
20.31,723.07
20.32,752.83
20.33,710.55
20.34,763.39
20.35,741.87
20.36,681.68
20.37,746.37
20.38,713.27
20.39,738.26
20.4,740.5
20.41,695.58
20.42,733.47
20.43,744.37
20.44,738.62
20.45,745.5
20.46,680.8
20.47,738.54
20.48,714.8
20.49,689.96
20.5,706.0
20.51,748.63
20.52,694.3
20.53,690.88
20.54,745.58
20.55,753.16
20.56,670.78
20.57,750.75
20.58,698.13
20.59,664.53
20.6,696.94
20.61,702.53
20.62,784.1
20.63,694.15
20.64,712.84
20.65,784.8
20.66,695.77
20.67,749.23
20.68,722.71
20.69,704.73
20.7,741.63
20.71,726.05
20.72,710.7
20.73,722.09
20.74,765.1
20.75,713.11
20.76,691.92
20.77,692.7
20.78,745.01
20.79,721.23
20.8,731.96
20.81,669.0
20.82,785.44
20.83,735.87
20.84,687.68
20.85,710.92
20.86,757.73
20.87,641.57
20.88,711.19
20.89,739.12
20.9,658.06
20.91,694.3
20.92,726.4
20.93,637.67
20.94,709.31
20.95,729.56
20.96,725.97
20.97,659.72
20.98,646.73
20.99,721.3
21.0,819.59
21.01,699.07
21.02,733.99
21.03,715.05
21.04,724.66
21.05,736.4
21.06,772.32
21.07,680.25
21.08,703.87
21.09,740.88
21.1,726.4
21.11,692.63
21.12,679.8
21.13,719.18
21.14,717.92
21.15,747.41
21.16,695.18
21.17,661.22
21.18,712.45
21.19,748.84
21.2,724.1
21.21,727.58
21.22,705.43
21.23,792.96
21.24,672.42
21.25,706.25
21.26,755.01
21.27,686.72
21.28,739.26
21.29,733.64
21.3,663.76
21.31,759.64
21.32,682.88
21.33,720.05
21.34,743.8
21.35,730.97
21.36,685.5
21.37,730.92
21.38,712.17
21.39,715.27
21.4,731.21
21.41,722.18
21.42,697.03
21.43,721.83
21.44,715.67
21.45,807.25
21.46,676.22
21.47,740.46
21.48,697.51
21.49,705.12
21.5,736.91
21.51,676.89
21.52,728.24
21.53,686.73
21.54,778.55
21.55,721.6
21.56,709.56
21.57,719.59
21.58,709.42
21.59,714.91
21.6,666.44
21.61,738.49
21.62,675.73
21.63,719.13
21.64,718.59
21.65,674.95
21.66,674.01
21.67,745.02
21.68,677.97
21.69,723.7
21.7,725.27
21.71,705.39
21.72,714.97
21.73,707.71
21.74,699.53
21.75,722.52
21.76,695.64
21.77,751.5
21.78,724.14
21.79,696.88
21.8,699.76
21.81,682.28
21.82,684.23
21.83,723.76
21.84,729.87
21.85,723.13
21.86,717.4
21.87,682.4
21.88,736.48
21.89,722.09
21.9,714.9
21.91,723.65
21.92,682.04
21.93,692.66
21.94,736.53
21.95,695.31
21.96,716.42
21.97,666.69
21.98,747.21
21.99,698.65
22.0,706.26
22.01,778.56
22.02,693.86
22.03,693.2
22.04,663.08
22.05,692.13
22.06,734.47
22.07,737.41
22.08,712.68
22.09,657.63
22.1,748.82
22.11,671.27
22.12,721.39
22.13,717.59
22.14,681.33
22.15,686.38
22.16,681.48
22.17,731.27
22.18,697.34
22.19,697.31
22.2,762.95
22.21,695.7
22.22,707.1
22.23,694.6
22.24,749.96
22.25,729.0
22.26,680.48
22.27,725.05
22.28,768.01
22.29,660.45
22.3,759.1
22.31,698.68
22.32,717.13
22.33,709.42
22.34,643.46
22.35,727.02
22.36,703.47
22.37,666.3
22.38,713.17
22.39,738.26
22.4,718.65
22.41,667.67
22.42,725.55
22.43,688.72
22.44,730.73
22.45,688.01
22.46,723.98
22.47,718.23
22.48,653.93
22.49,717.77
22.5,706.81
22.51,711.24
22.52,754.09
22.53,675.78
22.54,726.01
22.55,720.08
22.56,709.38
22.57,704.93
22.58,697.95
22.59,759.69
22.6,671.18
22.61,743.69
22.62,733.84
22.63,708.71
22.64,626.71
22.65,765.95
22.66,700.85
22.67,697.53
22.68,729.31
22.69,707.49
22.7,681.52
22.71,672.23
22.72,712.29
22.73,714.8
22.74,756.29
22.75,662.62
22.76,748.47
22.77,696.03
22.78,712.06
22.79,757.14
22.8,713.09
22.81,650.55
22.82,722.96
22.83,698.1
22.84,732.69
22.85,692.95
22.86,704.25
22.87,760.83
22.88,659.5
22.89,747.85
22.9,702.4
22.91,717.5
22.92,767.26
22.93,689.38
22.94,696.5
22.95,799.72
22.96,707.15
22.97,671.3
22.98,725.61
22.99,715.29
23.0,753.18
23.01,711.68
23.02,675.58
23.03,715.59
23.04,737.95
23.05,721.21
23.06,733.22
23.07,715.8
23.08,704.57
23.09,726.68
23.1,720.93
23.11,753.11
23.12,693.13
23.13,709.32
23.14,742.61
23.15,726.97
23.16,717.17
23.17,691.49
23.18,668.83
23.19,740.27
23.2,691.76
23.21,712.32
23.22,766.46
23.23,733.98
23.24,729.03
23.25,702.11
23.26,718.77
23.27,741.34
23.28,725.78
23.29,715.77
23.3,709.91
23.31,746.7
23.32,678.53
23.33,755.19
23.34,683.01
23.35,699.17
23.36,743.91
23.37,676.41
23.38,711.05
23.39,698.13
23.4,788.11
23.41,737.68
23.42,740.6
23.43,704.77
23.44,698.0
23.45,767.03
23.46,677.18
23.47,713.73
23.48,688.21
23.49,752.97
23.5,702.49
23.51,732.84
23.52,720.42
23.53,724.0
23.54,761.21
23.55,719.83
23.56,664.55
23.57,682.77
23.58,740.75
23.59,733.85
23.6,745.33
23.61,702.5
23.62,701.84
23.63,723.91
23.64,709.04
23.65,800.27
23.66,681.65
23.67,785.85
23.68,675.04
23.69,710.12
23.7,785.5
23.71,669.81
23.72,723.24
23.73,769.22
23.74,681.4
23.75,709.31
23.76,752.34
23.77,655.02
23.78,726.28
23.79,754.69
23.8,691.57
23.81,788.92
23.82,695.49
23.83,661.89
23.84,800.78
23.85,703.28
23.86,685.92
23.87,762.87
23.88,750.33
23.89,715.95
23.9,751.79
23.91,704.02
23.92,747.22
23.93,713.99
23.94,681.47
23.95,740.76
23.96,709.61
23.97,675.89
23.98,716.55
23.99,728.13
24.0,731.71
24.01,690.81
24.02,741.22
24.03,717.42
24.04,727.15
24.05,734.18
24.06,732.18
24.07,733.33
24.08,725.22
24.09,653.39
24.1,727.84
24.11,749.58
24.12,701.42
24.13,733.61
24.14,678.98
24.15,753.8
24.16,688.15
24.17,680.12
24.18,697.54
24.19,727.38
24.2,725.63
24.21,741.4
24.22,641.47
24.23,794.65
24.24,709.06
24.25,704.05
24.26,707.54
24.27,716.43
24.28,691.82
24.29,699.95
24.3,714.24
24.31,714.32
24.32,756.22
24.33,683.88
24.34,692.13
24.35,761.02
24.36,721.82
24.37,718.57
24.38,652.95
24.39,754.83
24.4,714.45
24.41,720.02
24.42,704.51
24.43,724.29
24.44,708.05
24.45,672.76
24.46,707.74
24.47,714.8
24.48,731.26
24.49,679.8
24.5,676.53
24.51,673.25
24.52,749.73
24.53,701.74
24.54,732.52
24.55,721.08
24.56,748.01
24.57,694.48
24.58,682.09
24.59,684.54
24.6,733.53
24.61,728.57
24.62,719.16
24.63,676.55
24.64,712.15
24.65,737.34
24.66,687.66
24.67,700.53
24.68,696.11
24.69,754.5
24.7,718.42
24.71,709.07
24.72,745.77
24.73,709.98
24.74,726.95
24.75,704.94
24.76,744.28
24.77,699.34
24.78,699.5
24.79,753.47
24.8,736.54
24.81,712.8
24.82,731.08
24.83,715.14
24.84,724.48
24.85,698.49
24.86,757.47
24.87,662.64
24.88,723.03
24.89,720.92
24.9,718.05
24.91,717.11
24.92,701.66
24.93,746.26
24.94,674.37
24.95,689.76
24.96,738.09
24.97,699.92
24.98,709.64
24.99,698.66
25.0,735.56
25.01,661.55
25.02,707.24
25.03,675.39
25.04,673.6
25.05,741.0
25.06,728.32
25.07,726.37
25.08,706.69
25.09,690.47
25.1,718.13
25.11,740.87
25.12,710.84
25.13,668.36
25.14,712.86
25.15,750.03
25.16,691.55
25.17,739.18
25.18,716.45
25.19,707.21
25.2,726.27
25.21,728.11
25.22,712.55
25.23,683.76
25.24,727.38
25.25,686.33
25.26,696.7
25.27,785.76
25.28,691.95
25.29,715.8
25.3,691.38
25.31,699.08
25.32,775.54
25.33,684.35
25.34,724.41
25.35,695.2
25.36,761.95
25.37,680.59
25.38,721.76
25.39,715.0
25.4,693.11
25.41,700.8
25.42,749.74
25.43,753.96
25.44,692.15
25.45,685.06
25.46,702.98
25.47,709.48
25.48,714.16
25.49,712.7
25.5,725.27
25.51,721.41
25.52,672.99
25.53,710.37
25.54,726.75
25.55,690.74
25.56,708.73
25.57,712.24
25.58,735.56
25.59,732.71
25.6,695.69
25.61,718.83
25.62,693.41
25.63,719.09
25.64,714.04
25.65,723.16
25.66,694.36
25.67,705.6
25.68,712.43
25.69,762.18
25.7,710.88
25.71,694.37
25.72,728.46
25.73,713.87
25.74,723.71
25.75,709.62
25.76,698.79
25.77,707.61
25.78,685.72
25.79,742.97
25.8,684.18
25.81,730.43
25.82,714.68
25.83,705.13
25.84,717.43
25.85,720.7
25.86,716.41
25.87,680.52
25.88,711.15
25.89,711.65
25.9,713.73
25.91,704.08
25.92,725.42
25.93,719.66
25.94,724.56
25.95,666.42
25.96,722.25
25.97,705.57
25.98,704.29
25.99,724.38
26.0,701.73
26.01,721.15
26.02,718.08
26.03,727.77
26.04,715.2
26.05,675.03
26.06,728.77
26.07,770.6
26.08,714.84
26.09,712.71
26.1,702.57
26.11,775.31
26.12,738.88
26.13,668.7
26.14,790.95
26.15,675.23
26.16,707.03
26.17,749.88
26.18,688.15
26.19,758.34
26.2,713.4
26.21,711.66
26.22,731.2
26.23,766.21
26.24,725.08
26.25,689.18
26.26,768.8
26.27,748.0
26.28,716.05
26.29,712.7
26.3,695.65
26.31,738.19
26.32,745.83
26.33,685.04
26.34,698.34
26.35,677.86
26.36,740.17
26.37,733.22
26.38,676.45
26.39,705.65
26.4,735.01
26.41,766.22
26.42,703.88
26.43,705.72
26.44,711.78
26.45,667.96
26.46,713.99
26.47,726.93
26.48,729.79
26.49,742.5
26.5,694.42
26.51,731.84
26.52,729.01
26.53,718.67
26.54,720.2
26.55,755.86
26.56,747.24
26.57,684.48
26.58,731.2
26.59,715.41
26.6,699.07
26.61,728.23
26.62,710.61
26.63,731.34
26.64,699.37
26.65,740.49
26.66,710.73
26.67,722.21
26.68,719.99
26.69,729.06
26.7,711.46
26.71,757.57
26.72,651.63
26.73,700.9
26.74,725.12
26.75,712.07
26.76,665.97
26.77,704.29
26.78,732.45
26.79,669.36
26.8,734.82
26.81,705.76
26.82,735.57
26.83,721.25
26.84,752.44
26.85,703.26
26.86,735.95
26.87,745.08
26.88,724.17
26.89,730.34
26.9,753.63
26.91,700.62
26.92,724.96
26.93,778.91
26.94,706.8
26.95,735.27
26.96,740.31
26.97,681.19
26.98,725.53
26.99,705.06
27.0,697.85
27.01,724.7
27.02,709.99
27.03,736.48
27.04,716.55
27.05,769.73
27.06,692.06
27.07,739.11
27.08,717.94
27.09,696.28
27.1,785.65
27.11,685.52
27.12,757.65
27.13,684.56
27.14,779.2
27.15,699.19
27.16,737.48
27.17,730.2
27.18,739.52
27.19,729.9
27.2,745.55
27.21,772.69
27.22,699.34
27.23,725.12
27.24,742.71
27.25,760.79
27.26,708.55
27.27,690.73
27.28,679.49
27.29,759.79
27.3,703.33
27.31,672.59
27.32,725.02
27.33,702.5
27.34,712.91
27.35,701.75
27.36,753.38
27.37,708.78
27.38,673.14
27.39,740.79
27.4,687.84
27.41,708.17
27.42,767.73
27.43,689.09
27.44,662.96
27.45,718.18
27.46,764.47
27.47,729.61
27.48,744.27
27.49,698.32
27.5,749.11
27.51,690.36
27.52,729.52
27.53,693.38
27.54,742.1
27.55,681.96
27.56,694.36
27.57,713.58
27.58,725.14
27.59,720.01
27.6,688.18
27.61,663.32
27.62,719.25
27.63,725.41
27.64,684.55
27.65,746.34
27.66,673.33
27.67,688.6
27.68,718.9
27.69,711.35
27.7,738.46
27.71,690.91
27.72,685.62
27.73,717.19
27.74,717.54
27.75,674.88
27.76,703.51
27.77,734.69
27.78,761.93
27.79,665.52
27.8,716.66
27.81,785.57
27.82,690.8
27.83,740.61
27.84,695.08
27.85,701.31
27.86,665.14
27.87,717.22
27.88,723.76
27.89,648.88
27.9,717.32
27.91,713.01
27.92,616.89
27.93,686.99
27.94,735.41
27.95,712.69
27.96,728.55
27.97,692.74
27.98,674.17
27.99,680.28
28.0,721.98
28.01,729.65
28.02,684.68
28.03,772.16
28.04,649.41
28.05,735.66
28.06,692.76
28.07,747.61
28.08,689.82
28.09,773.53
28.1,672.73
28.11,701.52
28.12,740.5
28.13,666.88
28.14,716.54
28.15,707.17
28.16,697.75
28.17,722.33
28.18,726.71
28.19,687.98
28.2,706.41
28.21,763.23
28.22,717.85
28.23,691.66
28.24,686.13
28.25,757.45
28.26,664.22
28.27,733.24
28.28,716.72
28.29,699.05
28.3,653.68
28.31,741.27
28.32,752.0
28.33,659.9
28.34,700.27
28.35,801.66
28.36,716.05
28.37,700.1
28.38,682.63
28.39,718.28
28.4,690.42
28.41,723.8
28.42,723.58
28.43,673.83
28.44,723.3
28.45,736.89
28.46,649.98
28.47,747.44
28.48,713.26
28.49,705.2
28.5,718.41
28.51,689.21
28.52,718.9
28.53,716.4
28.54,713.0
28.55,735.41
28.56,739.09
28.57,644.42
28.58,714.82
28.59,727.11
28.6,676.51
28.61,707.83
28.62,704.68
28.63,734.9
28.64,711.36
28.65,703.21
28.66,696.29
28.67,729.83
28.68,675.45
28.69,726.52
28.7,684.49
28.71,724.6
28.72,746.72
28.73,715.75
28.74,714.33
28.75,706.88
28.76,701.93
28.77,687.28
28.78,709.21
28.79,760.71
28.8,724.88
28.81,678.87
28.82,754.17
28.83,698.17
28.84,694.04
28.85,702.99
28.86,733.68
28.87,699.07
28.88,706.78
28.89,759.66
28.9,726.21
28.91,696.22
28.92,734.21
28.93,775.41
28.94,723.31
28.95,726.56
28.96,704.55
28.97,757.37
28.98,726.86
28.99,764.51
29.0,722.78
29.01,732.56
29.02,675.85
29.03,710.72
29.04,711.29
29.05,716.58
29.06,778.44
29.07,647.41
29.08,682.59
29.09,740.59
29.1,794.32
29.11,665.44
29.12,737.28
29.13,720.29
29.14,730.78
29.15,682.1
29.16,678.52
29.17,760.34
29.18,724.15
29.19,671.87
29.2,743.81
29.21,714.51
29.22,702.43
29.23,715.67
29.24,767.41
29.25,738.84
29.26,734.26
29.27,710.78
29.28,718.04
29.29,774.25
29.3,722.33
29.31,707.83
29.32,736.29
29.33,707.07
29.34,684.58
29.35,749.26
29.36,723.73
29.37,679.51
29.38,721.4
29.39,717.44
29.4,699.03
29.41,661.48
29.42,723.03
29.43,725.07
29.44,710.55
29.45,727.18
29.46,669.04
29.47,695.96
29.48,701.46
29.49,731.42
29.5,705.99
29.51,726.67
29.52,685.01
29.53,669.65
29.54,725.91
29.55,768.44
29.56,727.33
29.57,644.56
29.58,781.02
29.59,699.71
29.6,752.02
29.61,703.84
29.62,702.72
29.63,707.23
29.64,737.02
29.65,685.51
29.66,735.06
29.67,672.95
29.68,726.95
29.69,769.44
29.7,713.31
29.71,700.53
29.72,762.86
29.73,721.32
29.74,732.89
29.75,760.52
29.76,706.75
29.77,800.77
29.78,709.78
29.79,740.58
29.8,764.23
29.81,758.78
29.82,645.03
29.83,722.63
29.84,727.03
29.85,657.39
29.86,747.12
29.87,750.44
29.88,729.57
29.89,701.22
29.9,746.17
29.91,769.44
29.92,678.72
29.93,781.85
29.94,788.96
29.95,730.43
29.96,711.6
29.97,768.03
29.98,762.16
29.99,687.26
30.0,704.26
30.01,744.19
30.02,742.63
30.03,715.39
30.04,752.95
30.05,681.73
30.06,672.11
30.07,745.4
30.08,712.49
30.09,714.86
30.1,713.96
30.11,700.33
30.12,763.06
30.13,743.68
30.14,703.14
30.15,706.55
30.16,731.28
30.17,670.03
30.18,705.29
30.19,747.53
30.2,719.14
30.21,675.26
30.22,698.76
30.23,735.06
30.24,681.13
30.25,770.13
30.26,736.17
30.27,681.97
30.28,678.86
30.29,763.03
30.3,674.52
30.31,704.79
30.32,746.56
30.33,709.32
30.34,695.93
30.35,621.09
30.36,738.5
30.37,741.69
30.38,660.99
30.39,745.68
30.4,675.87
30.41,702.15
30.42,702.96
30.43,702.05
30.44,687.07
30.45,738.38
30.46,674.76
30.47,691.45
30.48,709.88
30.49,729.69
30.5,715.93
30.51,704.97
30.52,676.21
30.53,711.54
30.54,729.58
30.55,682.98
30.56,688.27
30.57,725.53
30.58,786.26
30.59,700.81
30.6,699.67
30.61,677.47
30.62,740.82
30.63,721.5
30.64,696.8
30.65,687.31
30.66,756.38
30.67,749.11
30.68,720.73
30.69,747.6
30.7,695.04
30.71,689.31
30.72,781.95
30.73,687.44
30.74,682.82
30.75,719.76
30.76,736.74
30.77,713.48
30.78,682.35
30.79,713.31
30.8,685.83
30.81,720.6
30.82,722.29
30.83,659.09
30.84,705.88
30.85,746.15
30.86,681.14
30.87,756.94
30.88,668.87
30.89,724.16
30.9,705.43
30.91,761.95
30.92,719.63
30.93,722.82
30.94,694.57
30.95,791.52
30.96,709.02
30.97,763.22
30.98,695.61
30.99,694.81
31.0,739.03
31.01,682.44
31.02,703.02
31.03,772.31
31.04,707.91
31.05,692.22
31.06,772.78
31.07,679.16
31.08,738.66
31.09,706.38
31.1,701.06
31.11,714.86
31.12,710.84
31.13,686.25
31.14,689.57
31.15,716.17
31.16,743.33
31.17,655.64
31.18,702.3
31.19,746.97
31.2,658.5
31.21,733.76
31.22,731.41
31.23,633.75
31.24,729.28
31.25,725.31
31.26,701.16
31.27,688.94
31.28,759.21
31.29,649.37
31.3,726.44
31.31,752.67
31.32,714.9
31.33,722.06
31.34,682.31
31.35,730.4
31.36,687.23
31.37,708.26
31.38,756.58
31.39,698.65
31.4,699.86
31.41,729.69
31.42,706.74
31.43,669.13
31.44,744.73
31.45,692.95
31.46,731.24
31.47,699.7
31.48,722.83
31.49,687.15
31.5,723.43
31.51,759.78
31.52,690.37
31.53,709.87
31.54,715.9
31.55,747.82
31.56,667.19
31.57,727.28
31.58,665.21
31.59,745.51
31.6,720.36
31.61,698.32
31.62,768.3
31.63,687.03
31.64,709.13
31.65,742.53
31.66,732.65
31.67,704.23
31.68,717.44
31.69,710.39
31.7,678.24
31.71,738.92
31.72,705.71
31.73,709.11
31.74,712.86
31.75,723.53
31.76,647.27
31.77,719.37
31.78,715.19
31.79,697.51
31.8,704.17
31.81,756.75
31.82,763.12
31.83,743.93
31.84,720.23
31.85,752.17
31.86,674.9
31.87,732.27
31.88,695.0
31.89,724.18
31.9,699.71
31.91,728.34
31.92,663.78
31.93,737.25
31.94,705.3
31.95,733.07
31.96,719.33
31.97,727.33
31.98,764.11
31.99,687.04
32.0,721.32
32.01,674.42
32.02,718.91
32.03,711.4
32.04,717.8
32.05,716.58
32.06,705.78
32.07,755.1
32.08,725.76
32.09,746.68
32.1,694.17
32.11,709.4
32.12,756.48
32.13,694.1
32.14,713.29
32.15,756.1
32.16,785.19
32.17,665.2
32.18,752.64
32.19,709.5
32.2,703.08
32.21,741.93
32.22,671.76
32.23,691.39
32.24,748.66
32.25,740.43
32.26,673.19
32.27,803.29
32.28,709.66
32.29,682.74
32.3,678.63
32.31,744.08
32.32,694.2
32.33,693.11
32.34,730.19
32.35,687.79
32.36,680.15
32.37,712.24
32.38,701.76
32.39,716.21
32.4,732.61
32.41,632.41
32.42,737.21
32.43,708.8
32.44,723.04
32.45,728.06
32.46,727.57
32.47,710.32
32.48,703.57
32.49,723.02
32.5,718.03
32.51,723.23
32.52,777.39
32.53,703.19
32.54,676.54
32.55,743.13
32.56,704.56
32.57,714.04
32.58,748.92
32.59,672.38
32.6,702.83
32.61,789.27
32.62,740.27
32.63,648.94
32.64,735.1
32.65,744.28
32.66,645.92
32.67,764.08
32.68,735.63
32.69,748.35
32.7,693.03
32.71,748.21
32.72,726.52
32.73,725.02
32.74,773.86
32.75,713.45
32.76,785.36
32.77,681.87
32.78,718.33
32.79,777.9
32.8,670.92
32.81,719.3
32.82,751.64
32.83,723.64
32.84,709.83
32.85,707.96
32.86,740.32
32.87,727.57
32.88,755.36
32.89,641.73
32.9,752.9
32.91,704.32
32.92,697.57
32.93,780.17
32.94,674.06
32.95,700.78
32.96,739.28
32.97,700.42
32.98,738.58
32.99,746.34
33.0,678.99
33.01,684.22
33.02,797.98
33.03,627.68
33.04,725.22
33.05,759.6
33.06,707.67
33.07,753.51
33.08,644.31
33.09,746.93
33.1,709.59
33.11,692.57
33.12,716.69
33.13,763.01
33.14,722.87
33.15,684.77
33.16,766.13
33.17,683.1
33.18,716.91
33.19,771.38
33.2,697.07
33.21,712.06
33.22,745.66
33.23,707.4
33.24,687.13
33.25,702.54
33.26,754.92
33.27,698.37
33.28,718.91
33.29,694.11
33.3,739.14
33.31,700.76
33.32,699.58
33.33,671.98
33.34,712.15
33.35,722.98
33.36,712.9
33.37,723.75
33.38,686.44
33.39,688.75
33.4,726.37
33.41,643.8
33.42,710.56
33.43,757.0
33.44,644.64
33.45,707.5
33.46,727.69
33.47,739.53
33.48,723.12
33.49,725.63
33.5,674.01
33.51,701.66
33.52,726.32
33.53,723.18
33.54,718.87
33.55,685.53
33.56,726.43
33.57,747.26
33.58,732.73
33.59,669.92
33.6,702.61
33.61,735.08
33.62,690.04
33.63,793.73
33.64,660.74
33.65,757.42
33.66,709.04
33.67,721.1
33.68,724.15
33.69,752.09
33.7,666.77
33.71,743.02
33.72,720.71
33.73,699.17
33.74,742.94
33.75,734.33
33.76,668.88
33.77,757.76
33.78,686.25
33.79,708.88
33.8,658.17
33.81,705.17
33.82,760.08
33.83,653.1
33.84,762.25
33.85,700.67
33.86,684.38
33.87,717.29
33.88,739.23
33.89,741.69
33.9,707.22
33.91,717.93
33.92,704.47
33.93,680.97
33.94,743.69
33.95,698.2
33.96,716.15
33.97,730.09
33.98,745.5
33.99,697.2
34.0,736.1
34.01,675.37
34.02,809.97
34.03,656.93
34.04,731.18
34.05,712.65
34.06,702.39
34.07,684.68
34.08,748.97
34.09,756.36
34.1,715.2
34.11,698.32
34.12,714.42
34.13,696.07
34.14,700.99
34.15,721.88
34.16,717.0
34.17,707.85
34.18,681.52
34.19,700.71
34.2,705.92
34.21,728.82
34.22,698.42
34.23,697.57
34.24,756.13
34.25,700.14
34.26,672.72
34.27,728.27
34.28,686.92
34.29,712.91
34.3,697.04
34.31,689.55
34.32,732.08
34.33,699.8
34.34,678.82
34.35,716.85
34.36,723.28
34.37,719.12
34.38,715.18
34.39,753.79
34.4,694.76
34.41,725.45
34.42,755.09
34.43,707.43
34.44,722.19
34.45,716.23
34.46,712.57
34.47,745.63
34.48,732.63
34.49,690.45
34.5,736.12
34.51,754.78
34.52,677.23
34.53,739.82
34.54,694.12
34.55,717.81
34.56,675.95
34.57,738.07
34.58,695.66
34.59,729.51
34.6,729.52
34.61,696.78
34.62,756.75
34.63,656.38
34.64,710.56
34.65,769.57
34.66,721.32
34.67,696.25
34.68,706.15
34.69,701.5
34.7,763.19
34.71,683.17
34.72,740.28
34.73,729.65
34.74,686.58
34.75,796.9
34.76,737.4
34.77,691.93
34.78,724.65
34.79,751.35
34.8,713.25
34.81,748.47
34.82,722.34
34.83,691.83
34.84,753.59
34.85,710.21
34.86,685.82
34.87,735.6
34.88,729.74
34.89,707.58
34.9,738.99
34.91,719.92
34.92,625.14
34.93,732.74
34.94,725.19
34.95,716.73
34.96,738.02
34.97,710.65
34.98,706.77
34.99,686.8
35.0,728.22
35.01,760.74
35.02,706.72
35.03,711.24
35.04,724.47
35.05,741.82
35.06,731.58
35.07,716.3
35.08,703.66
35.09,730.45
35.1,759.25
35.11,701.19
35.12,665.61
35.13,752.88
35.14,744.37
35.15,701.3
35.16,747.9
35.17,652.43
35.18,700.96
35.19,756.47
35.2,656.52
35.21,766.42
35.22,714.49
35.23,700.6
35.24,713.72
35.25,714.68
35.26,684.68
35.27,720.26
35.28,788.09
35.29,704.99
35.3,706.13
35.31,747.69
35.32,699.06
35.33,706.6
35.34,721.22
35.35,723.3
35.36,765.8
35.37,688.85
35.38,723.88
35.39,757.05
35.4,720.01
35.41,706.7
35.42,737.69
35.43,750.64
35.44,732.48
35.45,709.49
35.46,761.57
35.47,718.27
35.48,710.54
35.49,701.55
35.5,752.41
35.51,718.04
35.52,710.83
35.53,717.6
35.54,762.18
35.55,722.94
35.56,691.98
35.57,756.36
35.58,716.07
35.59,710.04
35.6,732.12
35.61,734.62
35.62,728.46
35.63,760.49
35.64,729.86
35.65,711.02
35.66,757.56
35.67,666.12
35.68,764.46
35.69,688.13
35.7,688.63
35.71,724.68
35.72,726.4
35.73,741.58
35.74,752.74
35.75,669.47
35.76,748.91
35.77,781.06
35.78,735.01
35.79,670.5
35.8,745.41
35.81,692.72
35.82,741.3
35.83,738.73
35.84,685.44
35.85,739.69
35.86,720.93
35.87,734.82
35.88,739.8
35.89,709.67
35.9,717.01
35.91,756.15
35.92,735.71
35.93,627.83
35.94,766.58
35.95,728.09
35.96,714.29
35.97,722.33
35.98,691.47
35.99,704.96
36.0,715.23
36.01,722.19
36.02,675.52
36.03,725.04
36.04,753.1
36.05,712.26
36.06,717.99
36.07,694.08
36.08,697.18
36.09,746.6
36.1,743.3
36.11,688.82
36.12,702.67
36.13,702.08
36.14,716.56
36.15,747.63
36.16,696.17
36.17,713.95
36.18,730.16
36.19,705.99
36.2,719.94
36.21,679.93
36.22,719.64
36.23,715.08
36.24,707.3
36.25,687.94
36.26,728.9
36.27,698.77
36.28,689.88
36.29,753.1
36.3,751.33
36.31,683.34
36.32,777.96
36.33,703.02
36.34,680.36
36.35,795.8
36.36,668.24
36.37,757.87
36.38,663.13
36.39,728.23
36.4,687.12
36.41,731.51
36.42,727.94
36.43,692.31
36.44,695.09
36.45,758.96
36.46,652.39
36.47,678.98
36.48,724.2
36.49,676.7
36.5,712.16
36.51,706.86
36.52,694.18
36.53,721.64
36.54,726.78
36.55,670.15
36.56,725.38
36.57,687.35
36.58,710.95
36.59,725.47
36.6,693.06
36.61,691.01
36.62,705.92
36.63,689.58
36.64,730.52
36.65,698.49
36.66,688.3
36.67,711.23
36.68,737.36
36.69,731.6
36.7,685.24
36.71,775.45
36.72,729.51
36.73,684.24
36.74,753.37
36.75,711.23
36.76,680.37
36.77,767.93
36.78,689.09
36.79,719.68
36.8,784.0
36.81,696.28
36.82,732.26
36.83,704.16
36.84,709.94
36.85,677.13
36.86,706.7
36.87,689.88
36.88,754.15
36.89,707.33
36.9,729.35
36.91,640.02
36.92,699.3
36.93,739.28
36.94,696.07
36.95,702.69
36.96,731.44
36.97,676.94
36.98,831.39
36.99,700.78
37.0,709.07
37.01,702.92
37.02,719.67
37.03,706.68
37.04,733.51
37.05,712.6
37.06,717.96
37.07,734.54
37.08,729.88
37.09,673.2
37.1,700.24
37.11,713.05
37.12,706.08
37.13,750.35
37.14,705.57
37.15,713.06
37.16,688.25
37.17,747.49
37.18,772.42
37.19,710.67
37.2,689.34
37.21,781.97
37.22,692.27
37.23,747.18
37.24,678.89
37.25,718.83
37.26,737.2
37.27,664.94
37.28,691.5
37.29,693.4
37.3,763.65
37.31,706.87
37.32,645.05
37.33,733.87
37.34,703.32
37.35,690.77
37.36,715.03
37.37,757.86
37.38,725.29
37.39,693.99
37.4,773.34
37.41,712.0
37.42,702.13
37.43,738.34
37.44,684.11
37.45,727.63
37.46,721.93
37.47,688.55
37.48,765.17
37.49,705.91
37.5,724.03
37.51,683.71
37.52,697.6
37.53,758.63
37.54,704.4
37.55,677.71
37.56,720.95
37.57,715.95
37.58,742.3
37.59,727.55
37.6,701.74
37.61,636.02
37.62,750.12
37.63,720.86
37.64,731.95
37.65,769.6
37.66,714.48
37.67,734.4
37.68,716.42
37.69,771.71
37.7,733.87
37.71,706.73
37.72,729.51
37.73,752.88
37.74,682.13
37.75,737.3
37.76,772.93
37.77,709.27
37.78,722.55
37.79,737.41
37.8,703.63
37.81,688.35
37.82,730.56
37.83,708.56
37.84,766.83
37.85,682.37
37.86,738.46
37.87,722.96
37.88,689.01
37.89,727.41
37.9,755.42
37.91,720.5
37.92,698.65
37.93,711.94
37.94,750.03
37.95,696.3
37.96,702.69
37.97,707.23
37.98,691.12
37.99,709.09
38.0,688.94
38.01,689.54
38.02,709.12
38.03,711.3
38.04,760.22
38.05,723.69
38.06,740.05
38.07,704.25
38.08,728.65
38.09,699.31
38.1,690.12
38.11,760.52
38.12,716.83
38.13,675.44
38.14,724.29
38.15,738.32
38.16,731.42
38.17,725.88
38.18,711.82
38.19,732.65
38.2,693.73
38.21,721.57
38.22,736.33
38.23,740.71
38.24,673.86
38.25,712.27
38.26,762.21
38.27,676.0
38.28,687.89
38.29,727.84
38.3,674.35
38.31,727.67
38.32,707.11
38.33,713.29
38.34,690.08
38.35,704.16
38.36,736.94
38.37,715.04
38.38,649.88
38.39,719.58
38.4,724.81
38.41,713.45
38.42,748.02
38.43,736.61
38.44,714.62
38.45,690.93
38.46,778.51
38.47,754.62
38.48,686.67
38.49,769.5
38.5,661.17
38.51,799.86
38.52,716.92
38.53,697.16
38.54,730.53
38.55,730.41
38.56,687.29
38.57,766.22
38.58,690.97
38.59,701.84
38.6,734.69
38.61,689.52
38.62,745.92
38.63,716.88
38.64,710.78
38.65,734.22
38.66,734.48
38.67,712.44
38.68,724.47
38.69,725.64
38.7,746.24
38.71,771.64
38.72,726.67
38.73,713.29
38.74,784.2
38.75,703.94
38.76,747.46
38.77,724.5
38.78,738.13
38.79,690.53
38.8,722.34
38.81,731.66
38.82,742.89
38.83,697.22
38.84,716.8
38.85,755.09
38.86,763.67
38.87,708.13
38.88,705.84
38.89,718.96
38.9,704.78
38.91,740.36
38.92,710.34
38.93,691.57
38.94,676.14
38.95,748.81
38.96,654.03
38.97,680.52
38.98,744.29
38.99,706.69
39.0,686.66
39.01,721.55
39.02,724.83
39.03,725.77
39.04,741.2
39.05,692.39
39.06,737.57
39.07,723.78
39.08,695.52
39.09,735.55
39.1,708.95
39.11,741.75
39.12,679.2
39.13,754.3
39.14,713.06
39.15,739.82
39.16,737.53
39.17,730.38
39.18,689.79
39.19,752.21
39.2,701.65
39.21,742.57
39.22,677.02
39.23,732.94
39.24,728.58
39.25,733.2
39.26,664.77
39.27,708.55
39.28,703.93
39.29,692.21
39.3,750.79
39.31,665.41
39.32,746.0
39.33,670.93
39.34,730.88
39.35,727.44
39.36,672.42
39.37,689.2
39.38,720.96
39.39,731.58
39.4,721.84
39.41,678.28
39.42,681.21
39.43,712.72
39.44,742.93
39.45,715.66
39.46,705.41
39.47,671.13
39.48,746.97
39.49,727.63
39.5,708.99
39.51,679.31
39.52,745.33
39.53,718.43
39.54,724.34
39.55,663.88
39.56,715.87
39.57,739.56
39.58,714.12
39.59,757.05
39.6,666.6
39.61,759.55
39.62,688.5
39.63,716.16
39.64,673.33
39.65,715.93
39.66,723.22
39.67,725.61
39.68,718.63
39.69,703.93
39.7,750.01
39.71,679.28
39.72,723.25
39.73,712.88
39.74,745.21
39.75,683.34
39.76,690.89
39.77,677.22
39.78,739.78
39.79,675.34
39.8,702.71
39.81,707.28
39.82,709.03
39.83,711.85
39.84,716.33
39.85,696.58
39.86,722.38
39.87,717.12
39.88,658.99
39.89,726.55
39.9,722.62
39.91,730.23
39.92,670.42
39.93,748.7
39.94,716.05
39.95,699.64
39.96,695.47
39.97,751.43
39.98,680.7
39.99,733.2
40.0,720.79
40.01,748.43
40.02,715.71
40.03,680.81
40.04,768.14
40.05,732.35
40.06,718.67
40.07,704.09
40.08,716.64
40.09,746.98
40.1,696.12
40.11,749.14
40.12,703.73
40.13,660.29
40.14,751.54
40.15,726.44
40.16,685.04
40.17,717.48
40.18,654.87
40.19,738.63
40.2,680.09
40.21,707.63
40.22,721.37
40.23,714.7
40.24,685.45
40.25,732.62
40.26,672.29
40.27,692.66
40.28,739.5
40.29,692.68
40.3,716.93
40.31,708.55
40.32,718.0
40.33,768.35
40.34,676.7
40.35,669.33
40.36,726.89
40.37,749.51
40.38,711.73
40.39,702.3
40.4,663.61
40.41,716.19
40.42,751.52
40.43,663.0
40.44,755.49
40.45,704.24
40.46,766.24
40.47,720.41
40.48,693.94
40.49,705.16
40.5,685.34
40.51,751.76
40.52,673.49
40.53,740.3
40.54,690.99
40.55,715.57
40.56,687.02
40.57,725.05
40.58,787.01
40.59,717.02
40.6,787.49
40.61,764.01
40.62,696.29
40.63,737.93
40.64,738.87
40.65,709.03
40.66,776.77
40.67,705.82
40.68,715.77
40.69,713.62
40.7,744.7
40.71,755.3
40.72,686.54
40.73,714.04
40.74,754.32
40.75,726.39
40.76,717.02
40.77,689.99
40.78,731.24
40.79,744.58
40.8,763.49
40.81,689.43
40.82,742.94
40.83,692.37
40.84,752.26
40.85,701.08
40.86,711.32
40.87,713.15
40.88,760.58
40.89,735.19
40.9,665.9
40.91,784.2
40.92,709.93
40.93,703.31
40.94,723.88
40.95,750.24
40.96,719.43
40.97,721.37
40.98,692.74
40.99,659.85
41.0,807.4
41.01,697.92
41.02,677.04
41.03,821.17
41.04,711.53
41.05,702.54
41.06,728.02
41.07,702.39
41.08,687.25
41.09,758.88
41.1,700.64
41.11,802.4
41.12,711.53
41.13,674.25
41.14,807.56
41.15,716.16
41.16,692.48
41.17,807.78
41.18,695.63
41.19,704.88
41.2,685.9
41.21,709.27
41.22,712.96
41.23,697.7
41.24,1000.36
41.25,3042.94
41.26,755.03
41.27,707.8
41.28,761.2
41.29,708.53
41.3,662.41
41.31,815.28
41.32,718.63
41.33,653.71
41.34,783.4
41.35,705.46
41.36,667.8
41.37,769.85
41.38,736.41
41.39,722.55
41.4,715.01
41.41,682.18
41.42,747.19
41.43,738.18
41.44,729.94
41.45,705.26
41.46,770.89
41.47,656.16
41.48,785.98
41.49,713.36
41.5,708.13
41.51,690.4
41.52,788.79
41.53,705.19
41.54,679.3
41.55,781.37
41.56,694.72
41.57,742.15
41.58,709.32
41.59,703.58
41.6,695.38
41.61,682.8
41.62,676.7
41.63,765.18
41.64,688.8
41.65,757.21
41.66,715.14
41.67,720.5
41.68,720.29
41.69,734.62
41.7,740.21
41.71,716.06
41.72,715.75
41.73,721.91
41.74,796.57
41.75,703.33
41.76,710.44
41.77,771.06
41.78,684.5
41.79,753.17
41.8,704.58
41.81,753.49
41.82,718.1
41.83,683.96
41.84,731.98
41.85,695.86
41.86,714.42
41.87,720.41
41.88,742.68
41.89,720.95
41.9,696.27
41.91,739.69
41.92,680.91
41.93,720.49
41.94,718.6
41.95,678.96
41.96,720.36
41.97,686.12
41.98,721.59
41.99,740.55
42.0,733.28
42.01,709.77
42.02,661.91
42.03,729.24
42.04,712.55
42.05,689.64
42.06,685.14
42.07,1039.75
42.08,1365.28
42.09,1379.51
42.1,1303.43
42.11,909.72
42.12,713.4
42.13,800.1
42.14,680.26
42.15,743.33
42.16,728.61
42.17,734.27
42.18,697.82
42.19,737.45
42.2,685.81
42.21,697.46
42.22,759.5
42.23,760.08
42.24,731.89
42.25,701.7
42.26,729.63
42.27,668.27
42.28,711.81
42.29,716.56
42.3,683.16
42.31,704.35
42.32,720.45
42.33,745.84
42.34,706.26
42.35,675.53
42.36,748.99
42.37,680.66
42.38,716.1
42.39,731.79
42.4,705.97
42.41,745.62
42.42,737.73
42.43,685.59
42.44,711.13
42.45,737.39
42.46,679.91
42.47,684.24
42.48,760.53
42.49,692.1
42.5,675.5
42.51,799.52
42.52,660.25
42.53,723.85
42.54,799.85
42.55,697.54
42.56,669.25
42.57,770.79
42.58,695.28
42.59,677.98
42.6,789.52
42.61,705.73
42.62,671.09
42.63,719.56
42.64,737.88
42.65,696.5
42.66,700.83
42.67,753.4
42.68,668.5
42.69,714.35
42.7,719.43
42.71,792.99
42.72,679.21
42.73,716.51
42.74,742.18
42.75,698.67
42.76,704.26
42.77,703.11
42.78,704.47
42.79,738.72
42.8,720.44
42.81,617.76
42.82,708.83
42.83,730.1
42.84,683.25
42.85,675.9
42.86,758.35
42.87,644.9
42.88,728.78
42.89,719.22
42.9,659.78
42.91,735.71
42.92,739.5
42.93,672.58
42.94,762.59
42.95,623.33
42.96,711.1
42.97,700.22
42.98,769.61
42.99,668.59
43.0,715.19
43.01,747.78
43.02,722.48
43.03,704.83
43.04,751.49
43.05,698.04
43.06,773.9
43.07,706.5
43.08,702.25
43.09,706.07
43.1,753.61
43.11,710.86
43.12,736.07
43.13,670.95
43.14,711.45
43.15,780.02
43.16,661.34
43.17,718.56
43.18,711.47
43.19,737.0
43.2,695.7
43.21,710.89
43.22,673.72
43.23,772.19
43.24,729.09
43.25,684.15
43.26,720.85
43.27,652.98
43.28,758.92
43.29,737.76
43.3,725.33
43.31,633.21
43.32,703.24
43.33,722.61
43.34,733.09
43.35,738.94
43.36,722.11
43.37,639.22
43.38,718.68
43.39,717.53
43.4,651.61
43.41,710.48
43.42,699.51
43.43,699.02
43.44,728.65
43.45,758.79
43.46,716.68
43.47,712.4
43.48,750.45
43.49,666.6
43.5,732.97
43.51,709.69
43.52,751.65
43.53,689.97
43.54,777.9
43.55,720.9
43.56,690.16
43.57,753.05
43.58,692.27
43.59,714.42
43.6,727.95
43.61,707.3
43.62,750.08
43.63,722.63
43.64,708.37
43.65,793.01
43.66,676.57
43.67,724.44
43.68,801.93
43.69,707.83
43.7,682.87
43.71,753.99
43.72,766.45
43.73,673.46
43.74,744.0
43.75,701.72
43.76,692.47
43.77,778.85
43.78,700.4
43.79,736.14
43.8,737.89
43.81,699.38
43.82,736.93
43.83,715.6
43.84,743.96
43.85,714.58
43.86,748.41
43.87,699.33
43.88,767.97
43.89,666.54
43.9,791.19
43.91,686.93
43.92,703.26
43.93,740.06
43.94,714.04
43.95,769.47
43.96,626.07
43.97,718.49
43.98,726.18
43.99,797.32
44.0,662.75
44.01,710.71
44.02,701.45
44.03,706.27
44.04,749.94
44.05,680.48
44.06,737.77
44.07,642.91
44.08,761.66
44.09,697.99
44.1,627.3
44.11,751.4
44.12,711.97
44.13,623.98
44.14,738.39
44.15,692.59
44.16,729.35
44.17,699.11
44.18,767.3
44.19,683.19
44.2,728.53
44.21,799.12
44.22,698.54
44.23,734.45
44.24,708.5
44.25,682.8
44.26,751.46
44.27,715.52
44.28,720.25
44.29,726.81
44.3,731.08
44.31,666.94
44.32,725.54
44.33,777.77
44.34,704.11
44.35,643.83
44.36,773.16
44.37,759.68
44.38,680.82
44.39,742.5
44.4,701.75
44.41,779.25
44.42,669.66
44.43,708.7
44.44,790.58
44.45,673.83
44.46,725.98
44.47,717.24
44.48,693.18
44.49,762.44
44.5,710.67
44.51,718.22
44.52,748.62
44.53,711.75
44.54,671.46
44.55,743.99
44.56,710.49
44.57,687.25
44.58,760.49
44.59,709.93
44.6,710.07
44.61,762.18
44.62,711.92
44.63,711.31
44.64,673.14
44.65,764.15
44.66,696.81
44.67,710.98
44.68,682.56
44.69,791.39
44.7,699.52
44.71,726.31
44.72,722.84
44.73,739.09
44.74,676.04
44.75,727.27
44.76,711.7
44.77,743.05
44.78,669.32
44.79,708.65
44.8,748.59
44.81,698.06
44.82,688.92
44.83,682.44
44.84,739.23
44.85,663.56
44.86,708.71
44.87,714.91
44.88,721.71
44.89,706.53
44.9,681.35
44.91,784.9
44.92,748.86
44.93,685.18
44.94,684.28
44.95,727.74
44.96,703.6
44.97,734.7
44.98,708.13
44.99,705.8
45.0,643.64
45.01,730.25
45.02,716.6
45.03,706.28
45.04,723.06
45.05,719.18
45.06,695.18
45.07,706.64
45.08,728.21
45.09,704.45
45.1,731.98
45.11,692.46
45.12,704.75
45.13,743.94
45.14,727.91
45.15,691.18
45.16,748.86
45.17,675.82
45.18,693.82
45.19,718.35
45.2,758.5
45.21,701.91
45.22,707.96
45.23,691.23
45.24,705.12
45.25,730.3
45.26,712.91
45.27,745.23
45.28,677.24
45.29,704.87
45.3,729.91
45.31,695.02
45.32,688.9
45.33,707.2
45.34,726.85
45.35,699.69
45.36,707.11
45.37,670.04
45.38,697.21
45.39,666.02
45.4,771.32
45.41,622.86
45.42,754.69
45.43,733.78
45.44,685.09
45.45,710.6
45.46,680.32
45.47,742.06
45.48,725.64
45.49,742.66
45.5,701.67
45.51,755.87
45.52,692.84
45.53,750.99
45.54,682.76
45.55,724.09
45.56,705.5
45.57,710.92
45.58,738.39
45.59,673.66
45.6,689.14
45.61,739.43
45.62,685.84
45.63,724.92
45.64,718.94
45.65,662.69
45.66,713.94
45.67,707.63
45.68,674.39
45.69,725.03
45.7,715.28
45.71,718.92
45.72,681.24
45.73,695.75
45.74,747.29
45.75,677.32
45.76,753.93
45.77,657.13
45.78,716.09
45.79,800.97
45.8,701.98
45.81,723.4
45.82,682.42
45.83,722.46
45.84,721.93
45.85,716.12
45.86,711.04
45.87,748.2
45.88,725.51
45.89,695.19
45.9,714.7
45.91,694.75
45.92,710.75
45.93,758.32
45.94,736.46
45.95,723.66
45.96,734.71
45.97,686.61
45.98,739.8
45.99,688.91
46.0,718.81
46.01,677.09
46.02,723.74
46.03,685.96
46.04,706.56
46.05,676.2
46.06,706.63
46.07,755.65
46.08,722.05
46.09,691.85
46.1,681.64
46.11,747.85
46.12,662.51
46.13,693.16
46.14,684.89
46.15,750.5
46.16,724.21
46.17,662.34
46.18,762.47
46.19,701.57
46.2,764.98
46.21,680.52
46.22,738.12
46.23,722.8
46.24,696.62
46.25,690.69
46.26,712.88
46.27,752.84
46.28,682.56
46.29,742.68
46.3,752.22
46.31,685.1
46.32,698.29
46.33,742.32
46.34,739.03
46.35,696.21
46.36,703.94
46.37,666.64
46.38,770.51
46.39,715.08
46.4,702.76
46.41,731.76
46.42,707.22
46.43,704.72
46.44,774.15
46.45,685.18
46.46,734.92
46.47,730.62
46.48,718.45
46.49,749.53
46.5,691.8
46.51,740.32
46.52,807.08
46.53,677.12
46.54,712.58
46.55,774.32
46.56,743.29
46.57,694.1
46.58,650.85
46.59,736.87
46.6,700.05
46.61,717.37
46.62,736.82
46.63,704.27
46.64,686.23
46.65,727.83
46.66,721.91
46.67,719.06
46.68,707.34
46.69,681.42
46.7,706.62
46.71,724.16
46.72,781.62
46.73,699.31
46.74,724.3
46.75,749.27
46.76,717.21
46.77,652.67
46.78,761.74
46.79,705.82
46.8,761.89
46.81,749.32
46.82,691.97
46.83,766.08
46.84,711.63
46.85,706.23
46.86,769.58
46.87,728.4
46.88,718.98
46.89,712.83
46.9,736.78
46.91,687.66
46.92,723.63
46.93,721.64
46.94,670.28
46.95,740.25
46.96,733.59
46.97,644.94
46.98,708.1
46.99,759.41
47.0,612.73
47.01,717.07
47.02,719.86
47.03,674.25
47.04,699.88
47.05,731.7
47.06,692.93
47.07,707.15
47.08,693.76
47.09,728.3
47.1,718.54
47.11,728.06
47.12,660.05
47.13,712.26
47.14,795.41
47.15,673.07
47.16,706.9
47.17,741.08
47.18,722.37
47.19,711.48
47.2,738.17
47.21,707.7
47.22,717.81
47.23,702.07
47.24,678.02
47.25,777.64
47.26,736.43
47.27,731.36
47.28,716.06
47.29,726.32
47.3,730.92
47.31,700.75
47.32,666.17
47.33,730.77
47.34,717.26
47.35,699.24
47.36,734.67
47.37,731.54
47.38,698.67
47.39,725.11
47.4,739.69
47.41,707.14
47.42,788.78
47.43,709.23
47.44,685.93
47.45,745.3
47.46,725.42
47.47,731.84
47.48,696.29
47.49,733.95
47.5,746.46
47.51,730.33
47.52,716.99
47.53,785.57
47.54,701.68
47.55,713.53
47.56,748.42
47.57,713.04
47.58,724.83
47.59,769.65
47.6,707.86
47.61,692.67
47.62,702.03
47.63,761.85
47.64,711.41
47.65,701.4
47.66,705.04
47.67,735.99
47.68,699.64
47.69,708.85
47.7,751.47
47.71,685.77
47.72,747.61
47.73,667.2
47.74,705.4
47.75,789.47
47.76,668.36
47.77,732.81
47.78,689.55
47.79,775.35
47.8,684.3
47.81,727.52
47.82,692.09
47.83,737.06
47.84,676.75
47.85,734.59
47.86,639.38
47.87,730.26
47.88,715.7
47.89,627.42
47.9,757.46
47.91,648.72
47.92,704.32
47.93,728.88
47.94,649.51
47.95,753.15
47.96,689.98
47.97,661.14
47.98,713.89
47.99,760.78
48.0,695.7
48.01,677.42
48.02,720.76
48.03,715.44
48.04,745.21
48.05,729.27
48.06,703.63
48.07,663.82
48.08,731.73
48.09,754.4
48.1,684.87
48.11,760.82
48.12,711.47
48.13,733.54
48.14,722.69
48.15,725.48
48.16,706.09
48.17,760.38
48.18,697.42
48.19,736.76
48.2,705.66
48.21,709.98
48.22,727.28
48.23,671.32
48.24,754.43
48.25,735.69
48.26,716.76
48.27,676.07
48.28,752.16
48.29,723.52
48.3,698.69
48.31,751.12
48.32,670.62
48.33,745.89
48.34,718.29
48.35,707.71
48.36,672.23
48.37,720.48
48.38,706.1
48.39,659.37
48.4,684.06
48.41,722.11
48.42,712.14
48.43,714.96
48.44,717.61
48.45,683.34
48.46,716.01
48.47,757.81
48.48,680.28
48.49,731.34
48.5,738.27
48.51,701.47
48.52,735.58
48.53,713.32
48.54,699.41
48.55,702.15
48.56,763.41
48.57,691.8
48.58,699.52
48.59,696.07
48.6,709.08
48.61,803.27
48.62,679.65
48.63,686.99
48.64,789.63
48.65,711.1
48.66,686.3
48.67,757.15
48.68,712.69
48.69,683.95
48.7,750.11
48.71,699.78
48.72,716.5
48.73,719.36
48.74,738.59
48.75,704.01
48.76,748.43
48.77,696.9
48.78,716.31
48.79,703.94
48.8,760.43
48.81,684.7
48.82,739.07
48.83,728.42
48.84,670.53
48.85,678.11
48.86,711.68
48.87,711.29
48.88,727.92
48.89,720.46
48.9,681.45
48.91,724.58
48.92,724.24
48.93,689.03
48.94,679.38
48.95,720.07
48.96,723.56
48.97,744.95
48.98,652.75
48.99,740.52
49.0,714.31
49.01,708.51
49.02,692.63
49.03,732.64
49.04,727.6
49.05,684.65
49.06,702.36
49.07,723.63
49.08,723.79
49.09,687.25
49.1,732.84
49.11,732.95
49.12,635.4
49.13,694.28
49.14,756.63
49.15,656.73
49.16,720.07
49.17,718.33
49.18,700.72
49.19,732.01
49.2,725.0
49.21,687.06
49.22,752.64
49.23,677.12
49.24,718.1
49.25,669.58
49.26,712.03
49.27,712.64
49.28,728.32
49.29,740.18
49.3,701.24
49.31,744.56
49.32,739.73
49.33,753.01
49.34,669.12
49.35,705.71
49.36,772.38
49.37,672.83
49.38,752.68
49.39,753.89
49.4,676.82
49.41,790.69
49.42,699.07
49.43,724.95
49.44,743.59
49.45,678.88
49.46,694.05
49.47,737.5
49.48,721.94
49.49,702.61
49.5,826.83
49.51,699.0
49.52,700.83
49.53,719.98
49.54,761.52
49.55,619.36
49.56,716.46
49.57,720.3
49.58,730.55
49.59,752.11
49.6,696.85
49.61,765.02
49.62,756.23
49.63,713.61
49.64,754.99
49.65,674.05
49.66,759.11
49.67,730.94
49.68,680.7
49.69,767.39
49.7,709.93
49.71,715.81
49.72,665.08
49.73,742.54
49.74,710.0
49.75,662.19
49.76,692.59
49.77,741.69
49.78,700.67
49.79,729.91
49.8,734.94
49.81,704.73
49.82,720.66
49.83,748.47
49.84,693.65
49.85,724.51
49.86,732.71
49.87,711.88
49.88,691.6
49.89,738.01
49.9,731.91
49.91,754.42
49.92,720.29
49.93,731.98
49.94,730.19
49.95,772.29
49.96,697.18
49.97,704.31
49.98,684.25
49.99,704.2
50.0,741.52
50.01,720.81
50.02,713.85
50.03,730.81
50.04,737.93
50.05,711.11
50.06,735.2
50.07,692.66
50.08,722.28
50.09,662.76
50.1,750.87
50.11,723.22
50.12,711.73
50.13,665.79
50.14,734.59
50.15,686.3
50.16,722.09
50.17,747.67
50.18,696.54
50.19,739.57
50.2,730.55
50.21,714.21
50.22,690.01
50.23,675.38
50.24,733.81
50.25,706.98
50.26,687.84
50.27,775.54
50.28,736.04
50.29,702.71
50.3,692.0
50.31,789.57
50.32,711.08
50.33,725.44
50.34,671.22
50.35,734.15
50.36,718.45
50.37,723.97
50.38,762.97
50.39,666.29
50.4,719.35
50.41,741.27
50.42,685.03
50.43,688.34
50.44,719.33
50.45,675.83
50.46,750.64
50.47,677.83
50.48,717.88
50.49,740.28
50.5,755.29
50.51,740.61
50.52,715.31
50.53,720.02
50.54,693.22
50.55,717.05
50.56,776.49
50.57,717.87
50.58,698.73
50.59,756.87
50.6,682.06
50.61,741.41
50.62,682.57
50.63,750.57
50.64,678.17
50.65,700.14
50.66,723.81
50.67,672.67
50.68,723.1
50.69,725.28
50.7,640.8
50.71,706.56
50.72,729.64
50.73,667.86
50.74,722.52
50.75,714.73
50.76,686.69
50.77,709.97
50.78,716.66
50.79,709.37
50.8,728.81
50.81,676.64
50.82,710.7
50.83,722.31
50.84,723.46
50.85,706.79
50.86,729.87
50.87,681.32
50.88,747.59
50.89,708.49
50.9,656.25
50.91,709.13
50.92,732.01
50.93,687.74
50.94,714.96
50.95,687.92
50.96,732.63
50.97,704.39
50.98,686.86
50.99,686.36
51.0,736.42
51.01,714.24
51.02,685.57
51.03,739.83
51.04,623.17
51.05,688.59
51.06,719.14
51.07,714.54
51.08,675.32
51.09,702.19
51.1,770.21
51.11,654.66
51.12,725.03
51.13,700.96
51.14,716.01
51.15,645.19
51.16,712.61
51.17,724.85
51.18,716.88
51.19,725.88
51.2,699.48
51.21,714.66
51.22,746.38
51.23,675.27
51.24,716.55
51.25,730.07
51.26,735.13
51.27,688.74
51.28,722.27
51.29,684.2
51.3,773.16
51.31,727.98
51.32,746.18
51.33,696.06
51.34,681.46
51.35,747.37
51.36,666.98
51.37,790.02
51.38,734.33
51.39,686.18
51.4,711.94
51.41,723.07
51.42,720.39
51.43,670.02
51.44,713.29
51.45,763.81
51.46,678.81
51.47,747.26
51.48,716.6
51.49,686.47
51.5,734.08
51.51,665.16
51.52,696.89
51.53,714.91
51.54,754.94
51.55,674.43
51.56,761.94
51.57,659.79
51.58,724.02
51.59,735.38
51.6,646.43
51.61,736.2
51.62,697.93
51.63,712.35
51.64,721.13
51.65,729.12
51.66,663.08
51.67,718.69
51.68,727.98
51.69,652.27
51.7,729.65
51.71,742.3
51.72,716.37
51.73,674.42
51.74,755.4
51.75,682.65
51.76,685.34
51.77,773.52
51.78,694.38
51.79,675.33
51.8,741.23
51.81,720.81
51.82,711.14
51.83,703.46
51.84,653.92
51.85,745.06
51.86,636.48
51.87,719.3
51.88,695.76
51.89,759.63
51.9,693.74
51.91,723.48
51.92,735.69
51.93,711.37
51.94,669.69
51.95,705.8
51.96,739.26
51.97,658.15
51.98,696.68
51.99,754.97
52.0,697.55
52.01,732.34
52.02,697.24
52.03,686.9
52.04,741.85
52.05,702.91
52.06,710.89
52.07,711.44
52.08,692.88
52.09,715.25
52.1,714.89
52.11,724.25
52.12,687.92
52.13,707.33
52.14,684.92
52.15,735.84
52.16,756.07
52.17,711.49
52.18,628.77
52.19,687.92
52.2,754.13
52.21,760.2
52.22,729.27
52.23,695.21
52.24,717.04
52.25,735.89
52.26,764.55
52.27,680.56
52.28,762.85
52.29,690.22
52.3,734.41
52.31,683.81
52.32,723.79
52.33,685.35
52.34,726.52
52.35,680.67
52.36,769.94
52.37,693.39
52.38,749.19
52.39,650.23
52.4,764.24
52.41,730.51
52.42,643.9
52.43,793.57
52.44,692.66
52.45,700.5
52.46,729.14
52.47,765.07
52.48,732.06
52.49,676.51
52.5,749.85
52.51,737.38
52.52,696.45
52.53,724.63
52.54,752.65
52.55,687.02
52.56,762.5
52.57,725.45
52.58,737.09
52.59,658.16
52.6,733.4
52.61,701.9
52.62,801.05
52.63,688.02
52.64,659.09
52.65,704.71
52.66,671.71
52.67,778.82
52.68,701.82
52.69,728.07
52.7,741.6
52.71,727.96
52.72,626.26
52.73,719.04
52.74,776.54
52.75,693.12
52.76,789.18
52.77,609.0
52.78,727.33
52.79,704.1
52.8,767.63
52.81,656.41
52.82,736.01
52.83,734.13
52.84,669.13
52.85,703.31
52.86,767.54
52.87,680.55
52.88,713.1
52.89,771.09
52.9,730.11
52.91,669.75
52.92,758.72
52.93,686.15
52.94,768.8
52.95,703.16
52.96,681.23
52.97,724.79
52.98,711.98
52.99,811.82
53.0,684.95
53.01,701.81
53.02,770.1
53.03,735.61
53.04,650.49
53.05,721.45
53.06,753.79
53.07,800.98
53.08,728.98
53.09,735.94
53.1,706.79
53.11,701.99
53.12,701.65
53.13,719.76
53.14,690.37
53.15,739.12
53.16,760.03
53.17,685.44
53.18,696.31
53.19,720.36
53.2,770.96
53.21,734.36
53.22,737.04
53.23,668.45
53.24,788.14
53.25,725.3
53.26,706.02
53.27,708.73
53.28,667.04
53.29,699.97
53.3,726.73
53.31,715.09
53.32,665.36
53.33,772.75
53.34,715.12
53.35,636.69
53.36,688.6
53.37,724.33
53.38,678.28
53.39,719.19
53.4,732.75
53.41,694.42
53.42,696.4
53.43,708.86
53.44,702.64
53.45,707.82
53.46,717.88
53.47,740.33
53.48,721.68
53.49,717.82
53.5,709.36
53.51,743.02
53.52,719.13
53.53,702.32
53.54,720.73
53.55,707.6
53.56,673.36
53.57,715.83
53.58,711.4
53.59,695.38
53.6,722.35
53.61,700.58
53.62,714.78
53.63,700.24
53.64,674.52
53.65,708.77
53.66,723.29
53.67,720.52
53.68,714.05
53.69,707.84
53.7,699.62
53.71,700.87
53.72,706.03
53.73,724.88
53.74,696.09
53.75,692.36
53.76,714.54
53.77,716.32
53.78,724.11
53.79,731.81
53.8,681.53
53.81,748.96
53.82,704.44
53.83,741.99
53.84,660.25
53.85,719.82
53.86,727.42
53.87,675.15
53.88,722.04
53.89,728.55
53.9,721.68
53.91,676.05
53.92,729.98
53.93,718.85
53.94,689.37
53.95,719.65
53.96,693.71
53.97,700.37
53.98,717.89
53.99,692.05
54.0,728.98
54.01,659.26
54.02,708.94
54.03,729.83
54.04,713.79
54.05,721.47
54.06,710.02
54.07,735.44
54.08,731.35
54.09,715.03
54.1,713.05
54.11,699.89
54.12,679.9
54.13,671.57
54.14,765.75
54.15,713.6
54.16,707.59
54.17,715.76
54.18,699.35
54.19,720.59
54.2,768.75
54.21,700.66
54.22,670.11
54.23,719.54
54.24,747.55
54.25,691.71
54.26,715.1
54.27,709.52
54.28,704.42
54.29,703.98
54.3,737.43
54.31,721.78
54.32,707.28
54.33,742.82
54.34,712.63
54.35,732.85
54.36,726.93
54.37,661.55
54.38,757.12
54.39,737.87
54.4,727.19
54.41,713.99
54.42,693.94
54.43,684.09
54.44,723.59
54.45,713.35
54.46,733.36
54.47,676.55
54.48,722.1
54.49,688.3
54.5,716.25
54.51,730.46
54.52,715.23
54.53,747.69
54.54,709.19
54.55,728.82
54.56,706.21
54.57,720.43
54.58,726.14
54.59,709.28
54.6,743.11
54.61,708.11
54.62,732.58
54.63,697.44
54.64,716.16
54.65,751.23
54.66,679.91
54.67,702.94
54.68,667.3
54.69,718.56
54.7,739.02
54.71,677.1
54.72,721.01
54.73,707.54
54.74,721.03
54.75,742.06
54.76,711.97
54.77,694.71
54.78,743.64
54.79,692.39
54.8,668.04
54.81,735.74
54.82,734.93
54.83,678.68
54.84,759.51
54.85,675.33
54.86,701.43
54.87,727.1
54.88,700.2
54.89,737.84
54.9,677.1
54.91,755.79
54.92,757.57
54.93,750.21
54.94,754.83
54.95,721.38
54.96,688.13
54.97,751.69
54.98,719.16
54.99,677.84
55.0,686.8
55.01,753.67
55.02,728.64
55.03,735.07
55.04,715.85
55.05,741.43
55.06,729.53
55.07,719.56
55.08,749.25
55.09,690.2
55.1,712.23
55.11,743.14
55.12,702.35
55.13,703.96
55.14,729.36
55.15,692.89
55.16,746.34
55.17,719.74
55.18,698.28
55.19,706.29
55.2,683.18
55.21,775.09
55.22,720.01
55.23,722.47
55.24,691.55
55.25,754.93
55.26,691.88
55.27,686.4
55.28,760.9
55.29,681.7
55.3,715.29
55.31,743.18
55.32,719.51
55.33,743.6
55.34,711.76
55.35,726.2
55.36,738.28
55.37,712.32
55.38,711.31
55.39,720.79
55.4,670.61
55.41,683.7
55.42,763.12
55.43,650.6
55.44,775.55
55.45,718.22
55.46,728.76
55.47,707.81
55.48,701.39
55.49,719.42
55.5,712.49
55.51,730.36
55.52,671.08
55.53,707.23
55.54,715.05
55.55,658.81
55.56,711.17
55.57,722.18
55.58,723.01
55.59,720.42
55.6,689.53
55.61,725.59
55.62,737.6
55.63,680.55
55.64,689.71
55.65,732.59
55.66,801.8
55.67,725.01
55.68,674.93
55.69,779.1
55.7,761.18
55.71,693.74
55.72,706.2
55.73,759.16
55.74,724.65
55.75,695.65
55.76,749.19
55.77,654.25
55.78,701.1
55.79,779.25
55.8,674.17
55.81,738.5
55.82,738.94
55.83,652.34
55.84,788.16
55.85,713.31
55.86,714.59
55.87,768.69
55.88,719.52
55.89,686.51
55.9,739.2
55.91,730.31
55.92,696.51
55.93,770.77
55.94,764.51
55.95,712.12
55.96,731.2
55.97,756.56
55.98,707.15
55.99,692.09
56.0,713.29
56.01,779.87
56.02,706.64
56.03,757.82
56.04,736.96
56.05,660.12
56.06,746.65
56.07,740.79
56.08,716.61
56.09,726.71
56.1,687.82
56.11,725.29
56.12,711.51
56.13,683.04
56.14,735.97
56.15,694.42
56.16,645.31
56.17,726.49
56.18,687.35
56.19,735.92
56.2,732.51
56.21,661.01
56.22,723.73
56.23,729.67
56.24,695.79
56.25,771.29
56.26,704.3
56.27,671.91
56.28,739.64
56.29,684.66
56.3,772.78
56.31,722.1
56.32,650.83
56.33,719.65
56.34,743.62
56.35,725.13
56.36,723.92
56.37,663.52
56.38,757.91
56.39,706.99
56.4,738.14
56.41,720.89
56.42,717.22
56.43,722.02
56.44,737.02
56.45,699.45
56.46,686.74
56.47,771.17
56.48,708.08
56.49,701.78
56.5,717.6
56.51,710.15
56.52,723.4
56.53,708.14
56.54,696.95
56.55,673.87
56.56,717.09
56.57,766.86
56.58,701.27
56.59,712.9
56.6,674.08
56.61,697.64
56.62,672.81
56.63,710.97
56.64,793.73
56.65,705.62
56.66,697.29
56.67,707.11
56.68,718.41
56.69,670.22
56.7,756.77
56.71,677.08
56.72,735.9
56.73,755.28
56.74,694.9
56.75,658.78
56.76,717.46
56.77,705.47
56.78,732.26
56.79,709.67
56.8,714.59
56.81,676.54
56.82,718.99
56.83,668.14
56.84,696.38
56.85,767.05
56.86,646.75
56.87,733.4
56.88,722.86
56.89,691.24
56.9,724.95
56.91,716.63
56.92,678.74
56.93,679.3
56.94,704.99
56.95,730.34
56.96,722.37
56.97,733.72
56.98,697.69
56.99,662.88
57.0,737.24
57.01,727.43
57.02,704.71
57.03,713.47
57.04,681.82
57.05,731.56
57.06,755.97
57.07,675.89
57.08,706.55
57.09,755.61
57.1,712.58
57.11,720.73
57.12,703.18
57.13,703.18
57.14,723.75
57.15,703.49
57.16,749.22
57.17,670.68
57.18,736.79
57.19,627.45
57.2,708.29
57.21,734.91
57.22,646.97
57.23,726.82
57.24,742.88
57.25,665.87
57.26,752.29
57.27,693.33
57.28,700.24
57.29,697.98
57.3,742.65
57.31,655.2
57.32,694.85
57.33,703.03
57.34,694.27
57.35,726.15
57.36,764.85
57.37,679.66
57.38,730.83
57.39,693.7
57.4,669.4
57.41,712.67
57.42,789.58
57.43,700.82
57.44,705.85
57.45,721.29
57.46,712.01
57.47,692.46
57.48,707.12
57.49,697.28
57.5,748.66
57.51,722.24
57.52,693.73
57.53,733.44
57.54,733.81
57.55,677.02
57.56,790.88
57.57,711.23
57.58,661.31
57.59,738.82
57.6,672.78
57.61,798.51
57.62,661.88
57.63,702.24
57.64,715.32
57.65,726.24
57.66,696.99
57.67,700.49
57.68,772.51
57.69,667.73
57.7,731.37
57.71,738.47
57.72,725.99
57.73,685.82
57.74,726.22
57.75,719.31
57.76,728.06
57.77,682.04
57.78,725.95
57.79,732.34
57.8,694.46
57.81,732.52
57.82,714.65
57.83,713.17
57.84,730.03
57.85,701.3
57.86,785.85
57.87,701.78
57.88,744.51
57.89,742.76
57.9,715.42
57.91,704.54
57.92,734.52
57.93,712.7
57.94,735.71
57.95,688.76
57.96,765.19
57.97,727.53
57.98,705.32
57.99,762.7
58.0,706.91
58.01,745.22
58.02,701.49
58.03,741.24
58.04,675.16
58.05,756.64
58.06,769.04
58.07,701.9
58.08,685.19
58.09,756.88
58.1,640.63
58.11,788.05
58.12,716.77
58.13,653.65
58.14,769.87
58.15,745.35
58.16,653.2
58.17,694.22
58.18,761.94
58.19,722.51
58.2,730.82
58.21,685.08
58.22,671.49
58.23,732.88
58.24,736.97
58.25,710.94
58.26,734.56
58.27,730.56
58.28,694.98
58.29,810.37
58.3,659.4
58.31,719.56
58.32,772.0
58.33,685.71
58.34,729.1
58.35,779.03
58.36,724.98
58.37,656.89
58.38,788.01
58.39,690.19
58.4,687.35
58.41,802.09
58.42,675.6
58.43,758.6
58.44,744.35
58.45,698.9
58.46,704.94
58.47,716.83
58.48,696.85
58.49,716.48
58.5,731.83
58.51,703.97
58.52,743.14
58.53,701.22
58.54,737.82
58.55,716.74
58.56,750.9
58.57,693.43
58.58,755.38
58.59,681.2
58.6,680.95
58.61,803.84
58.62,709.0
58.63,679.91
58.64,748.45
58.65,703.43
58.66,703.71
58.67,760.72
58.68,716.36
58.69,742.09
58.7,714.47
58.71,747.39
58.72,715.9
58.73,724.41
58.74,738.34
58.75,743.84
58.76,705.04
58.77,742.1
58.78,702.99
58.79,732.43
58.8,718.02
58.81,749.98
58.82,716.79
58.83,719.6
58.84,710.72
58.85,737.5
58.86,747.19
58.87,727.16
58.88,744.1
58.89,731.19
58.9,720.34
58.91,752.26
58.92,711.59
58.93,773.67
58.94,691.56
58.95,754.02
58.96,705.13
58.97,697.15
58.98,791.09
58.99,761.19
59.0,669.35
59.01,763.03
59.02,697.55
59.03,727.06
59.04,687.03
59.05,674.74
59.06,753.04
59.07,695.56
59.08,684.61
59.09,722.67
59.1,707.08
59.11,694.93
59.12,725.47
59.13,738.6
59.14,709.38
59.15,695.45
59.16,713.1
59.17,758.37
59.18,686.83
59.19,678.84
59.2,710.24
59.21,716.17
59.22,713.19
59.23,725.02
59.24,697.4
59.25,744.43
59.26,723.99
59.27,696.62
59.28,718.43
59.29,692.87
59.3,736.79
59.31,725.75
59.32,735.19
59.33,668.91
59.34,729.54
59.35,765.42
59.36,729.97
59.37,710.09
59.38,653.93
59.39,719.34
59.4,699.44
59.41,803.76
59.42,654.83
59.43,785.08
59.44,670.08
59.45,723.01
59.46,743.25
59.47,673.84
59.48,710.12
59.49,724.62
59.5,693.63
59.51,712.0
59.52,750.93
59.53,711.67
59.54,638.24
59.55,750.25
59.56,661.48
59.57,705.04
59.58,724.03
59.59,690.99
59.6,762.49
59.61,707.16
59.62,689.79
59.63,695.3
59.64,703.02
59.65,726.49
59.66,694.37
59.67,750.85
59.68,629.77
59.69,708.93
59.7,719.65
59.71,735.89
59.72,748.36
59.73,681.31
59.74,653.75
59.75,739.64
59.76,730.28
59.77,725.12
59.78,691.77
59.79,700.36
59.8,674.67
59.81,712.31
59.82,734.22
59.83,737.02
59.84,700.99
59.85,655.09
59.86,698.21
59.87,758.33
59.88,709.5
59.89,693.49
59.9,733.53
59.91,728.41
59.92,710.01
59.93,750.96
59.94,710.35
59.95,734.17
59.96,733.44
59.97,723.08
59.98,701.32
59.99,765.39
60.0,705.0
60.01,729.65
60.02,692.1
60.03,691.95
60.04,713.35
60.05,720.0
60.06,727.09
60.07,715.38
60.08,719.21
60.09,711.25
60.1,709.27
60.11,718.06
60.12,700.94
60.13,712.26
60.14,677.9
60.15,678.28
60.16,740.47
60.17,706.6
60.18,715.13
60.19,686.59
60.2,717.64
60.21,718.02
60.22,746.39
60.23,713.86
60.24,672.51
60.25,728.57
60.26,741.75
60.27,728.02
60.28,727.38
60.29,746.11
60.3,718.74
60.31,716.06
60.32,695.28
60.33,709.03
60.34,734.56
60.35,751.55
60.36,724.27
60.37,684.04
60.38,738.65
60.39,698.43
60.4,702.51
60.41,702.29
60.42,732.44
60.43,728.09
60.44,779.72
60.45,705.04
60.46,768.99
60.47,715.44
60.48,671.51
60.49,669.7
60.5,734.1
60.51,701.52
60.52,708.35
60.53,715.99
60.54,677.39
60.55,748.17
60.56,705.73
60.57,715.95
60.58,721.33
60.59,671.59
60.6,701.98
60.61,721.87
60.62,755.55
60.63,663.57
60.64,763.84
60.65,704.02
60.66,723.74
60.67,722.27
60.68,766.96
60.69,679.76
60.7,736.84
60.71,718.35
60.72,747.99
60.73,738.85
60.74,700.45
60.75,722.53
60.76,802.87
60.77,683.19
60.78,747.59
60.79,714.42
60.8,725.26
60.81,685.36
60.82,779.0
60.83,683.48
60.84,722.13
60.85,750.18
60.86,742.58
60.87,708.34
60.88,724.3
60.89,678.06
60.9,751.82
60.91,726.02
60.92,736.49
60.93,757.56
60.94,670.88
60.95,711.75
60.96,772.87
60.97,718.47
60.98,713.45
60.99,739.51
61.0,706.91
61.01,778.23
61.02,731.5
61.03,705.54
61.04,713.57
61.05,764.79
61.06,684.39
61.07,747.08
61.08,726.61
61.09,724.98
61.1,714.13
61.11,721.95
61.12,755.42
61.13,708.62
61.14,680.77
61.15,758.97
61.16,651.36
61.17,749.84
61.18,706.09
61.19,675.38
61.2,720.18
61.21,701.99
61.22,717.79
61.23,730.71
61.24,742.35
61.25,748.25
61.26,712.85
61.27,708.34
61.28,734.12
61.29,785.07
61.3,674.51
61.31,720.65
61.32,700.17
61.33,725.37
61.34,724.57
61.35,729.77
61.36,705.8
61.37,708.94
61.38,776.76
61.39,670.24
61.4,730.78
61.41,733.48
61.42,717.67
61.43,749.7
61.44,666.18
61.45,724.46
61.46,722.63
61.47,721.25
61.48,701.0
61.49,728.6
61.5,768.32
61.51,667.63
61.52,740.34
61.53,743.25
61.54,677.41
61.55,663.67
61.56,697.16
61.57,787.58
61.58,679.92
61.59,719.64
61.6,805.09
61.61,702.97
61.62,712.88
61.63,746.02
61.64,740.66
61.65,715.67
61.66,753.2
61.67,663.82
61.68,739.46
61.69,744.35
61.7,653.4
61.71,704.27
61.72,779.69
61.73,700.78
61.74,739.54
61.75,720.36
61.76,707.93
61.77,740.15
61.78,734.64
61.79,710.16
61.8,693.29
61.81,710.49
61.82,736.19
61.83,717.39
61.84,731.76
61.85,729.37
61.86,755.09
61.87,692.37
61.88,743.89
61.89,694.28
61.9,722.77
61.91,731.4
61.92,742.22
61.93,681.89
61.94,700.37
61.95,746.31
61.96,726.39
61.97,727.33
61.98,688.05
61.99,700.17
62.0,678.87
62.01,774.84
62.02,702.08
62.03,669.92
62.04,714.32
62.05,740.04
62.06,712.22
62.07,678.55
62.08,758.41
62.09,711.34
62.1,692.86
62.11,723.25
62.12,706.87
62.13,752.47
62.14,682.24
62.15,697.49
62.16,754.36
62.17,670.21
62.18,738.44
62.19,667.82
62.2,734.97
62.21,732.93
62.22,709.82
62.23,713.84
62.24,666.93
62.25,733.51
62.26,720.2
62.27,744.46
62.28,680.57
62.29,743.6
62.3,754.25
62.31,676.76
62.32,741.78
62.33,724.86
62.34,728.52
62.35,707.4
62.36,703.98
62.37,724.39
62.38,735.09
62.39,697.94
62.4,702.1
62.41,715.65
62.42,676.95
62.43,758.8
62.44,672.17
62.45,761.41
62.46,693.57
62.47,705.09
62.48,720.44
62.49,658.56
62.5,737.5
62.51,731.39
62.52,723.08
62.53,705.9
62.54,714.26
62.55,669.08
62.56,748.33
62.57,713.94
62.58,717.47
62.59,692.13
62.6,703.83
62.61,755.55
62.62,697.87
62.63,765.83
62.64,703.79
62.65,686.64
62.66,727.84
62.67,731.48
62.68,687.86
62.69,685.79
62.7,718.19
62.71,766.92
62.72,707.07
62.73,685.43
62.74,695.45
62.75,769.36
62.76,747.37
62.77,692.24
62.78,734.4
62.79,715.38
62.8,665.01
62.81,754.58
62.82,696.46
62.83,716.75
62.84,737.2
62.85,670.2
62.86,750.89
62.87,690.56
62.88,690.0
62.89,712.6
62.9,718.21
62.91,744.96
62.92,658.06
62.93,706.0
62.94,722.32
62.95,694.05
62.96,716.02
62.97,743.99
62.98,666.13
62.99,747.16
63.0,675.61
63.01,685.8
63.02,779.26
63.03,714.89
63.04,700.66
63.05,709.62
63.06,742.41
63.07,682.68
63.08,762.03
63.09,723.88
63.1,684.89
63.11,729.18
63.12,726.36
63.13,748.89
63.14,726.09
63.15,715.92
63.16,687.09
63.17,729.55
63.18,717.63
63.19,733.96
63.2,711.86
63.21,685.93
63.22,748.77
63.23,711.48
63.24,701.6
63.25,747.01
63.26,724.79
63.27,685.95
63.28,729.15
63.29,690.36
63.3,743.62
63.31,756.33
63.32,699.71
63.33,702.27
63.34,704.56
63.35,726.91
63.36,717.13
63.37,744.37
63.38,679.76
63.39,714.14
63.4,742.58
63.41,698.03
63.42,699.89
63.43,724.87
63.44,724.85
63.45,664.67
63.46,720.72
63.47,682.26
63.48,677.52
63.49,690.4
63.5,740.3
63.51,717.16
63.52,712.59
63.53,673.74
63.54,734.52
63.55,738.07
63.56,706.08
63.57,711.0
63.58,743.99
63.59,709.08
63.6,709.81
63.61,716.17
63.62,691.37
63.63,694.39
63.64,699.5
63.65,716.71
63.66,763.88
63.67,712.32
63.68,697.84
63.69,744.61
63.7,737.1
63.71,721.13
63.72,772.3
63.73,699.13
63.74,752.56
63.75,757.68
63.76,664.25
63.77,773.59
63.78,652.44
63.79,761.89
63.8,711.59
63.81,701.79
63.82,710.31
63.83,729.63
63.84,704.82
63.85,765.17
63.86,732.45
63.87,677.88
63.88,749.38
63.89,752.57
63.9,679.18
63.91,746.91
63.92,688.31
63.93,737.9
63.94,733.76
63.95,747.31
63.96,650.86
63.97,720.88
63.98,704.67
63.99,710.24
64.0,731.48
64.01,681.05
64.02,774.6
64.03,655.4
64.04,745.04
64.05,694.46
64.06,692.06
64.07,701.42
64.08,721.13
64.09,676.1
64.1,753.39
64.11,701.52
64.12,681.82
64.13,738.9
64.14,715.03
64.15,731.77
64.16,743.36
64.17,758.83
64.18,710.41
64.19,704.28
64.2,740.69
64.21,735.87
64.22,728.11
64.23,727.15
64.24,658.93
64.25,717.52
64.26,736.14
64.27,715.87
64.28,747.18
64.29,704.0
64.3,744.51
64.31,708.3
64.32,658.36
64.33,732.09
64.34,707.33
64.35,677.66
64.36,680.46
64.37,717.09
64.38,700.93
64.39,679.55
64.4,722.01
64.41,709.93
64.42,709.22
64.43,755.54
64.44,707.27
64.45,701.77
64.46,797.44
64.47,702.38
64.48,745.53
64.49,723.56
64.5,707.9
64.51,717.36
64.52,733.8
64.53,706.11
64.54,679.72
64.55,810.9
64.56,703.23
64.57,726.06
64.58,703.21
64.59,742.89
64.6,690.53
64.61,703.66
64.62,716.33
64.63,717.24
64.64,723.51
64.65,698.47
64.66,721.1
64.67,717.3
64.68,635.55
64.69,761.57
64.7,681.16
64.71,725.06
64.72,757.54
64.73,718.11
64.74,676.02
64.75,723.13
64.76,717.86
64.77,737.08
64.78,706.53
64.79,724.25
64.8,801.54
64.81,700.52
64.82,755.65
64.83,727.88
64.84,686.49
64.85,725.48
64.86,678.14
64.87,699.52
64.88,795.67
64.89,695.23
64.9,689.81
64.91,761.76
64.92,730.66
64.93,694.76
64.94,727.77
64.95,695.47
64.96,708.89
64.97,723.69
64.98,731.53
64.99,679.08
65.0,690.26
65.01,707.26
65.02,752.98
65.03,712.8
65.04,728.83
65.05,695.5
65.06,707.36
65.07,666.22
65.08,707.88
65.09,763.88
65.1,668.71
65.11,710.62
65.12,722.4
65.13,702.21
65.14,727.45
65.15,693.58
65.16,716.91
65.17,704.13
65.18,772.8
65.19,681.38
65.2,713.12
65.21,783.86
65.22,671.82
65.23,711.76
65.24,781.57
65.25,725.53
65.26,708.83
65.27,678.88
65.28,711.63
65.29,746.84
65.3,674.01
65.31,772.72
65.32,649.69
65.33,732.62
65.34,681.05
65.35,735.34
65.36,718.08
65.37,713.26
65.38,711.34
65.39,702.57
65.4,751.66
65.41,697.02
65.42,685.3
65.43,709.75
65.44,679.1
65.45,735.61
65.46,714.83
65.47,687.22
65.48,717.93
65.49,707.31
65.5,707.04
65.51,715.63
65.52,702.66
65.53,699.75
65.54,749.68
65.55,671.44
65.56,696.27
65.57,750.63
65.58,684.32
65.59,687.52
65.6,732.77
65.61,718.86
65.62,692.2
65.63,701.39
65.64,726.4
65.65,720.6
65.66,793.4
65.67,729.6
65.68,709.96
65.69,685.5
65.7,726.89
65.71,657.73
65.72,712.43
65.73,749.51
65.74,632.8
65.75,718.3
65.76,739.66
65.77,701.05
65.78,716.86
65.79,728.39
65.8,666.59
65.81,735.56
65.82,713.11
65.83,705.22
65.84,705.84
65.85,670.97
65.86,738.93
65.87,680.04
65.88,715.67
65.89,763.88
65.9,682.64
65.91,695.08
65.92,720.55
65.93,725.7
65.94,754.29
65.95,670.36
65.96,763.45
65.97,695.68
65.98,726.1
65.99,716.87
66.0,704.23
66.01,732.06
66.02,749.95
66.03,716.62
66.04,709.6
66.05,719.5
66.06,734.01
66.07,707.81
66.08,679.28
66.09,695.81
66.1,724.8
66.11,730.87
66.12,721.32
66.13,666.36
66.14,725.33
66.15,699.35
66.16,721.65
66.17,702.34
66.18,699.71
66.19,758.95
66.2,702.09
66.21,711.63
66.22,689.93
66.23,706.21
66.24,707.39
66.25,717.93
66.26,762.12
66.27,634.61
66.28,694.0
66.29,714.94
66.3,752.33
66.31,672.56
66.32,761.51
66.33,656.95
66.34,724.75
66.35,763.84
66.36,681.05
66.37,720.74
66.38,775.37
66.39,698.01
66.4,715.43
66.41,730.88
66.42,675.37
66.43,708.12
66.44,708.67
66.45,762.74
66.46,715.41
66.47,727.13
66.48,743.15
66.49,623.02
66.5,758.99
66.51,726.54
66.52,640.34
66.53,716.81
66.54,736.58
66.55,691.29
66.56,685.31
66.57,768.2
66.58,735.12
66.59,669.67
66.6,718.78
66.61,760.43
66.62,669.95
66.63,705.54
66.64,721.11
66.65,758.37
66.66,694.57
66.67,726.78
66.68,701.6
66.69,728.0
66.7,694.94
66.71,691.62
66.72,728.51
66.73,767.72
66.74,669.62
66.75,734.33
66.76,743.68
66.77,656.63
66.78,720.01
66.79,742.06
66.8,710.04
66.81,742.15
66.82,669.17
66.83,720.85
66.84,697.58
66.85,716.03
66.86,732.31
66.87,720.83
66.88,720.21
66.89,799.49
66.9,709.04
66.91,742.35
66.92,709.78
66.93,652.38
66.94,815.05
66.95,681.93
66.96,682.83
66.97,826.52
66.98,677.16
66.99,675.85
67.0,807.95
67.01,696.35
67.02,733.68
67.03,709.42
67.04,702.11
67.05,738.51
67.06,716.54
67.07,732.42
67.08,633.01
67.09,712.59
67.1,736.92
67.11,651.28
67.12,711.31
67.13,725.01
67.14,721.34
67.15,725.87
67.16,644.35
67.17,751.24
67.18,699.63
67.19,632.27
67.2,729.22
67.21,677.66
67.22,698.16
67.23,706.53
67.24,768.77
67.25,673.89
67.26,719.11
67.27,646.95
67.28,782.63
67.29,687.21
67.3,716.77
67.31,782.11
67.32,709.06
67.33,746.44
67.34,745.05
67.35,720.16
67.36,755.86
67.37,735.82
67.38,746.47
67.39,720.45
67.4,761.41
67.41,706.23
67.42,737.0
67.43,712.91
67.44,723.4
67.45,812.81
67.46,663.08
67.47,705.38
67.48,759.02
67.49,687.8
67.5,761.92
67.51,728.5
67.52,706.86
67.53,725.26
67.54,709.11
67.55,712.41
67.56,761.15
67.57,721.44
67.58,685.43
67.59,737.77
67.6,717.91
67.61,744.65
67.62,679.26
67.63,716.14
67.64,702.02
67.65,742.76
67.66,743.77
67.67,711.33
67.68,753.22
67.69,719.89
67.7,655.44
67.71,711.22
67.72,688.96
67.73,679.38
67.74,757.42
67.75,702.17
67.76,722.14
67.77,675.8
67.78,753.02
67.79,709.66
67.8,698.93
67.81,747.77
67.82,691.57
67.83,732.69
67.84,701.21
67.85,748.41
67.86,709.54
67.87,681.07
67.88,733.19
67.89,733.18
67.9,690.92
67.91,725.05
67.92,669.61
67.93,723.54
67.94,721.29
67.95,639.07
67.96,717.19
67.97,754.79
67.98,685.36
67.99,672.29
68.0,672.83
68.01,717.79
68.02,797.61
68.03,717.47
68.04,704.95
68.05,659.54
68.06,759.12
68.07,705.34
68.08,684.73
68.09,712.95
68.1,714.64
68.11,646.92
68.12,739.64
68.13,686.24
68.14,720.24
68.15,706.45
68.16,737.29
68.17,692.74
68.18,704.55
68.19,716.66
68.2,687.46
68.21,760.25
68.22,667.09
68.23,751.27
68.24,714.46
68.25,623.74
68.26,717.34
68.27,713.01
68.28,739.21
68.29,695.07
68.3,710.66
68.31,734.98
68.32,699.24
68.33,736.91
68.34,690.34
68.35,706.59
68.36,774.53
68.37,693.86
68.38,701.97
68.39,759.98
68.4,694.72
68.41,752.43
68.42,664.36
68.43,743.28
68.44,703.47
68.45,740.75
68.46,688.5
68.47,724.89
68.48,671.98
68.49,723.95
68.5,747.2
68.51,714.62
68.52,742.92
68.53,697.7
68.54,746.06
68.55,692.04
68.56,720.11
68.57,700.85
68.58,747.96
68.59,697.05
68.6,706.81
68.61,694.03
68.62,713.05
68.63,738.05
68.64,732.61
68.65,711.93
68.66,676.7
68.67,711.24
68.68,703.86
68.69,690.27
68.7,736.94
68.71,735.06
68.72,686.87
68.73,701.76
68.74,729.03
68.75,740.66
68.76,727.3
68.77,711.83
68.78,718.9
68.79,772.3
68.8,690.45
68.81,762.64
68.82,764.19
68.83,666.86
68.84,729.41
68.85,783.18
68.86,681.19
68.87,724.88
68.88,688.36
68.89,724.65
68.9,682.13
68.91,702.93
68.92,706.04
68.93,776.03
68.94,710.11
68.95,711.52
68.96,701.42
68.97,700.88
68.98,703.13
68.99,744.86
69.0,678.16
69.01,756.0
69.02,687.92
69.03,705.62
69.04,735.8
69.05,738.8
69.06,669.85
69.07,729.9
69.08,720.57
69.09,692.07
69.1,695.21
69.11,740.98
69.12,693.81
69.13,746.62
69.14,719.73
69.15,676.74
69.16,732.09
69.17,676.75
69.18,699.29
69.19,712.62
69.2,711.98
69.21,758.38
69.22,742.44
69.23,690.93
69.24,700.89
69.25,709.03
69.26,693.9
69.27,764.86
69.28,701.0
69.29,751.92
69.3,714.77
69.31,718.62
69.32,732.23
69.33,712.38
69.34,709.99
69.35,755.58
69.36,731.9
69.37,713.55
69.38,730.1
69.39,736.53
69.4,735.06
69.41,722.3
69.42,696.96
69.43,690.95
69.44,758.46
69.45,651.11
69.46,748.1
69.47,747.77
69.48,692.52
69.49,774.74
69.5,709.17
69.51,695.73
69.52,747.58
69.53,723.35
69.54,667.47
69.55,726.61
69.56,702.01
69.57,713.58
69.58,753.42
69.59,714.79
69.6,678.94
69.61,793.28
69.62,691.44
69.63,739.62
69.64,729.33
69.65,673.02
69.66,778.69
69.67,689.14
69.68,744.41
69.69,733.0
69.7,724.36
69.71,743.6
69.72,730.77
69.73,767.95
69.74,680.14
69.75,708.32
69.76,688.35
69.77,719.55
69.78,740.83
69.79,667.99
69.8,717.45
69.81,690.23
69.82,706.84
69.83,740.28
69.84,728.93
69.85,685.12
69.86,716.11
69.87,781.94
69.88,676.21
69.89,732.62
69.9,741.97
69.91,708.19
69.92,706.29
69.93,688.7
69.94,732.65
69.95,723.67
69.96,694.57
69.97,678.57
69.98,754.94
69.99,660.76
70.0,757.6
70.01,685.86
70.02,753.45
70.03,685.52
70.04,698.64
70.05,702.15
70.06,682.05
70.07,745.28
70.08,705.5
70.09,694.52
70.1,710.81
70.11,742.15
70.12,682.84
70.13,781.27
70.14,703.73
70.15,721.58
70.16,750.36
70.17,775.01
70.18,708.82
70.19,730.18
70.2,712.42
70.21,721.0
70.22,743.03
70.23,773.19
70.24,694.5
70.25,733.11
70.26,717.09
70.27,687.5
70.28,741.46
70.29,730.46
70.3,740.62
70.31,708.28
70.32,679.53
70.33,757.26
70.34,732.91
70.35,736.96
70.36,740.65
70.37,692.87
70.38,692.67
70.39,722.72
70.4,734.83
70.41,688.72
70.42,776.33
70.43,664.08
70.44,727.07
70.45,763.93
70.46,746.22
70.47,697.3
70.48,710.29
70.49,728.01
70.5,706.85
70.51,743.64
70.52,702.96
70.53,698.68
70.54,743.5
70.55,695.97
70.56,684.56
70.57,712.06
70.58,704.09
70.59,698.36
70.6,741.98
70.61,664.01
70.62,754.13
70.63,721.03
70.64,765.07
70.65,698.41
70.66,728.62
70.67,685.92
70.68,721.36
70.69,755.33
70.7,716.37
70.71,675.14
70.72,716.2
70.73,759.26
70.74,720.56
70.75,735.17
70.76,657.07
70.77,723.32
70.78,736.17
70.79,712.37
70.8,747.74
70.81,676.91
70.82,707.74
70.83,721.71
70.84,676.3
70.85,735.61
70.86,744.03
70.87,660.01
70.88,720.15
70.89,728.97
70.9,705.0
70.91,689.31
70.92,721.41
70.93,681.62
70.94,763.47
70.95,692.35
70.96,738.49
70.97,737.06
70.98,713.06
70.99,709.65
71.0,758.04
71.01,727.75
71.02,718.69
71.03,707.95
71.04,727.34
71.05,673.84
71.06,716.33
71.07,716.67
71.08,646.71
71.09,759.79
71.1,711.02
71.11,642.79
71.12,730.23
71.13,686.41
71.14,758.32
71.15,702.89
71.16,726.8
71.17,637.47
71.18,723.25
71.19,669.43
71.2,750.59
71.21,665.42
71.22,754.91
71.23,751.65
71.24,660.48
71.25,774.41
71.26,745.86
71.27,751.57
71.28,679.07
71.29,750.34
71.3,684.35
71.31,723.88
71.32,701.88
71.33,709.8
71.34,665.43
71.35,720.43
71.36,690.05
71.37,747.46
71.38,735.76
71.39,720.12
71.4,709.76
71.41,671.67
71.42,748.72
71.43,667.91
71.44,733.23
71.45,785.01
71.46,699.07
71.47,705.86
71.48,728.39
71.49,715.66
71.5,630.19
71.51,717.15
71.52,755.89
71.53,695.26
71.54,743.92
71.55,671.83
71.56,719.42
71.57,723.41
71.58,719.52
71.59,687.75
71.6,683.25
71.61,729.31
71.62,697.5
71.63,671.21
71.64,716.37
71.65,747.78
71.66,723.4
71.67,702.66
71.68,708.17
71.69,781.24
71.7,674.54
71.71,734.22
71.72,724.22
71.73,717.82
71.74,760.05
71.75,685.52
71.76,699.96
71.77,666.92
71.78,698.2
71.79,720.01
71.8,719.98
71.81,712.62
71.82,685.47
71.83,738.78
71.84,711.35
71.85,683.7
71.86,751.16
71.87,672.65
71.88,736.34
71.89,653.71
71.9,770.97
71.91,709.43
71.92,708.16
71.93,636.26
71.94,646.3
71.95,744.24
71.96,679.13
71.97,719.18
71.98,730.8
71.99,719.16
72.0,678.79
72.01,690.15
72.02,723.69
72.03,682.64
72.04,733.79
72.05,710.91
72.06,728.82
72.07,676.29
72.08,708.41
72.09,765.67
72.1,706.93
72.11,662.6
72.12,681.74
72.13,668.27
72.14,719.27
72.15,710.42
72.16,739.68
72.17,752.75
72.18,668.71
72.19,716.53
72.2,770.62
72.21,729.45
72.22,699.5
72.23,717.8
72.24,719.33
72.25,758.74
72.26,699.59
72.27,747.82
72.28,735.08
72.29,676.81
72.3,762.91
72.31,705.45
72.32,703.08
72.33,690.26
72.34,742.24
72.35,760.39
72.36,698.67
72.37,706.7
72.38,747.19
72.39,781.35
72.4,727.69
72.41,686.76
72.42,747.65
72.43,707.41
72.44,679.23
72.45,776.07
72.46,712.12
72.47,681.28
72.48,682.43
72.49,718.34
72.5,671.65
72.51,718.05
72.52,704.04
72.53,751.97
72.54,696.61
72.55,682.03
72.56,717.17
72.57,687.62
72.58,761.59
72.59,716.75
72.6,725.93
72.61,739.36
72.62,713.9
72.63,706.12
72.64,725.08
72.65,732.55
72.66,718.56
72.67,735.17
72.68,641.26
72.69,715.11
72.7,730.41
72.71,664.0
72.72,725.51
72.73,699.5
72.74,710.86
72.75,694.97
72.76,751.9
72.77,750.0
72.78,663.69
72.79,737.67
72.8,680.19
72.81,668.11
72.82,628.74
72.83,740.06
72.84,767.63
72.85,705.21
72.86,707.35
72.87,755.49
72.88,719.63
72.89,729.49
72.9,720.22
72.91,679.16
72.92,753.21
72.93,685.95
72.94,782.52
72.95,709.07
72.96,710.01
72.97,761.77
72.98,693.13
72.99,714.54
73.0,734.08
73.01,673.01
73.02,695.12
73.03,740.09
73.04,749.15
73.05,703.76
73.06,732.12
73.07,690.72
73.08,739.13
73.09,760.46
73.1,753.15
73.11,687.41
73.12,737.37
73.13,735.51
73.14,737.23
73.15,688.97
73.16,686.38
73.17,756.43
73.18,687.14
73.19,797.72
73.2,661.2
73.21,771.22
73.22,698.33
73.23,756.45
73.24,628.7
73.25,735.55
73.26,711.27
73.27,704.19
73.28,670.58
73.29,742.09
73.3,701.53
73.31,702.84
73.32,730.05
73.33,698.07
73.34,712.02
73.35,773.03
73.36,656.61
73.37,714.66
73.38,695.99
73.39,755.26
73.4,690.13
73.41,698.39
73.42,680.07
73.43,726.9
73.44,693.81
73.45,712.22
73.46,707.98
73.47,713.15
73.48,697.06
73.49,760.12
73.5,714.48
73.51,739.54
73.52,700.95
73.53,750.11
73.54,712.99
73.55,733.11
73.56,693.81
73.57,726.9
73.58,729.83
73.59,693.83
73.6,688.53
73.61,733.49
73.62,725.78
73.63,677.94
73.64,720.35
73.65,706.87
73.66,702.81
73.67,751.77
73.68,749.45
73.69,705.14
73.7,735.58
73.71,719.39
73.72,700.85
73.73,693.34
73.74,679.27
73.75,715.65
73.76,712.09
73.77,683.02
73.78,741.66
73.79,698.92
73.8,706.46
73.81,707.49
73.82,747.67
73.83,689.74
73.84,702.79
73.85,733.56
73.86,688.11
73.87,692.14
73.88,736.76
73.89,692.73
73.9,713.55
73.91,720.63
73.92,674.97
73.93,719.75
73.94,714.76
73.95,736.78
73.96,682.25
73.97,707.26
73.98,721.1
73.99,708.86
74.0,678.94
74.01,719.35
74.02,758.59
74.03,703.43
74.04,706.23
74.05,694.0
74.06,746.44
74.07,673.33
74.08,722.25
74.09,683.56
74.1,725.84
74.11,712.94
74.12,675.62
74.13,716.18
74.14,728.44
74.15,704.37
74.16,725.29
74.17,747.53
74.18,676.13
74.19,700.06
74.2,706.44
74.21,760.65
74.22,711.99
74.23,676.94
74.24,744.34
74.25,713.53
74.26,695.4
74.27,711.96
74.28,728.95
74.29,720.83
74.3,684.65
74.31,716.77
74.32,726.68
74.33,747.24
74.34,701.74
74.35,692.23
74.36,730.94
74.37,717.24
74.38,725.92
74.39,728.15
74.4,691.38
74.41,667.1
74.42,746.48
74.43,723.62
74.44,726.22
74.45,709.26
74.46,758.43
74.47,658.47
74.48,717.14
74.49,664.74
74.5,706.75
74.51,727.81
74.52,685.51
74.53,721.84
74.54,705.85
74.55,666.9
74.56,746.41
74.57,699.97
74.58,692.08
74.59,683.17
74.6,699.02
74.61,703.3
74.62,730.37
74.63,721.7
74.64,706.75
74.65,727.28
74.66,731.6
74.67,643.88
74.68,696.47
74.69,688.93
74.7,719.6
74.71,680.68
74.72,713.58
74.73,703.32
74.74,672.14
74.75,738.88
74.76,780.51
74.77,673.95
74.78,717.28
74.79,709.04
74.8,707.86
74.81,721.48
74.82,712.5
74.83,756.28
74.84,689.95
74.85,694.12
74.86,709.88
74.87,790.42
74.88,679.53
74.89,741.48
74.9,732.56
74.91,690.22
74.92,760.86
74.93,717.34
74.94,735.27
74.95,687.05
74.96,693.89
74.97,713.88
74.98,751.88
74.99,745.58
75.0,725.13
75.01,745.0
75.02,722.94
75.03,688.06
75.04,731.28
75.05,718.01
75.06,729.81
75.07,742.75
75.08,717.64
75.09,797.44
75.1,712.4
75.11,705.21
75.12,724.83
75.13,730.75
75.14,708.68
75.15,719.41
75.16,699.41
75.17,680.62
75.18,710.29
75.19,713.27
75.2,663.9
75.21,700.25
75.22,721.25
75.23,653.35
75.24,753.66
75.25,740.21
75.26,678.18
75.27,743.09
75.28,729.25
75.29,692.4
75.3,672.95
75.31,735.09
75.32,682.47
75.33,700.54
75.34,778.17
75.35,698.6
75.36,725.41
75.37,684.96
75.38,753.81
75.39,740.5
75.4,725.5
75.41,710.52
75.42,733.13
75.43,732.13
75.44,736.05
75.45,694.49
75.46,764.34
75.47,685.72
75.48,735.4
75.49,737.18
75.5,752.65
75.51,731.85
75.52,696.46
75.53,712.6
75.54,747.07
75.55,695.36
75.56,742.8
75.57,725.24
75.58,700.27
75.59,771.37
75.6,743.47
75.61,707.51
75.62,770.66
75.63,716.67
75.64,680.22
75.65,800.68
75.66,683.47
75.67,743.91
75.68,731.37
75.69,706.08
75.7,703.91
75.71,715.88
75.72,747.77
75.73,736.65
75.74,743.07
75.75,756.42
75.76,710.41
75.77,720.03
75.78,733.6
75.79,744.95
75.8,710.29
75.81,730.57
75.82,726.25
75.83,702.27
75.84,695.88
75.85,673.52
75.86,762.11
75.87,691.28
75.88,765.35
75.89,718.13
75.9,701.11
75.91,731.15
75.92,747.71
75.93,724.66
75.94,703.55
75.95,722.37
75.96,707.82
75.97,757.28
75.98,656.82
75.99,738.86
76.0,693.98
76.01,713.49
76.02,716.37
76.03,709.47
76.04,708.51
76.05,733.82
76.06,700.92
76.07,749.68
76.08,700.86
76.09,731.02
76.1,683.65
76.11,708.1
76.12,784.07
76.13,684.91
76.14,716.39
76.15,726.66
76.16,745.8
76.17,688.82
76.18,698.65
76.19,702.56
76.2,707.78
76.21,764.58
76.22,721.45
76.23,673.14
76.24,670.38
76.25,714.68
76.26,723.1
76.27,683.04
76.28,753.84
76.29,661.39
76.3,696.67
76.31,700.75
76.32,720.0
76.33,726.25
76.34,667.19
76.35,715.13
76.36,732.83
76.37,689.97
76.38,723.14
76.39,665.01
76.4,710.04
76.41,732.7
76.42,736.45
76.43,681.38
76.44,764.6
76.45,713.04
76.46,696.42
76.47,729.41
76.48,693.03
76.49,774.38
76.5,747.65
76.51,683.08
76.52,667.54
76.53,693.13
76.54,709.44
76.55,755.39
76.56,661.93
76.57,777.36
76.58,703.45
76.59,730.21
76.6,718.91
76.61,715.69
76.62,675.85
76.63,706.27
76.64,717.57
76.65,687.22
76.66,669.02
76.67,649.45
76.68,737.07
76.69,707.73
76.7,750.25
76.71,719.21
76.72,749.25
76.73,709.16
76.74,732.3
76.75,682.22
76.76,716.25
76.77,794.33
76.78,714.52
76.79,701.09
76.8,725.27
76.81,686.38
76.82,726.48
76.83,745.38
76.84,712.29
76.85,653.21
76.86,769.03
76.87,701.84
76.88,749.44
76.89,712.55
76.9,719.35
76.91,728.52
76.92,711.68
76.93,703.15
76.94,696.21
76.95,731.84
76.96,672.59
76.97,706.63
76.98,725.23
76.99,688.5
77.0,687.53
77.01,710.28
77.02,723.53
77.03,746.05
77.04,684.95
77.05,783.66
77.06,705.97
77.07,719.63
77.08,709.03
77.09,663.44
77.1,742.26
77.11,705.78
77.12,690.06
77.13,744.71
77.14,691.79
77.15,806.31
77.16,688.64
77.17,709.86
77.18,697.02
77.19,728.23
77.2,724.05
77.21,725.18
77.22,676.82
77.23,775.3
77.24,728.73
77.25,695.63
77.26,713.94
77.27,717.62
77.28,712.08
77.29,743.77
77.3,752.43
77.31,678.4
77.32,683.03
77.33,701.82
77.34,762.72
77.35,707.97
77.36,720.99
77.37,712.23
77.38,727.67
77.39,669.48
77.4,732.89
77.41,667.5
77.42,740.89
77.43,719.13
77.44,709.73
77.45,677.13
77.46,689.16
77.47,760.87
77.48,748.35
77.49,684.33
77.5,750.32
77.51,694.05
77.52,725.06
77.53,711.37
77.54,673.05
77.55,725.54
77.56,704.59
77.57,712.42
77.58,727.89
77.59,664.48
77.6,718.99
77.61,768.79
77.62,696.98
77.63,667.06
77.64,768.41
77.65,678.24
77.66,717.26
77.67,746.04
77.68,692.13
77.69,686.59
77.7,732.17
77.71,762.41
77.72,726.71
77.73,776.69
77.74,728.63
77.75,748.6
77.76,704.18
77.77,747.24
77.78,726.34
77.79,706.59
77.8,718.41
77.81,724.71
77.82,734.76
77.83,738.86
77.84,744.88
77.85,715.46
77.86,682.79
77.87,725.72
77.88,660.89
77.89,719.82
77.9,698.33
77.91,686.79
77.92,689.92
77.93,716.77
77.94,693.16
77.95,692.63
77.96,720.37
77.97,706.96
77.98,742.58
77.99,677.82
78.0,714.5
78.01,719.81
78.02,714.94
78.03,743.55
78.04,762.84
78.05,629.53
78.06,727.79
78.07,719.55
78.08,713.17
78.09,767.65
78.1,667.39
78.11,723.78
78.12,690.45
78.13,721.35
78.14,687.33
78.15,703.56
78.16,651.45
78.17,746.31
78.18,784.34
78.19,667.54
78.2,775.09
78.21,696.69
78.22,740.14
78.23,690.8
78.24,780.01
78.25,666.15
78.26,693.98
78.27,800.78
78.28,730.71
78.29,739.83
78.3,718.36
78.31,690.32
78.32,737.08
78.33,753.29
78.34,779.47
78.35,739.29
78.36,692.04
78.37,686.65
78.38,740.5
78.39,731.6
78.4,709.05
78.41,675.21
78.42,704.91
78.43,724.41
78.44,760.3
78.45,677.53
78.46,741.8
78.47,708.13
78.48,722.85
78.49,766.48
78.5,752.35
78.51,664.1
78.52,708.61
78.53,741.19
78.54,721.99
78.55,740.42
78.56,759.59
78.57,673.91
78.58,698.73
78.59,737.16
78.6,716.06
78.61,695.44
78.62,706.41
78.63,760.9
78.64,615.87
78.65,710.81
78.66,746.01
78.67,678.3
78.68,719.84
78.69,754.75
78.7,701.84
78.71,742.09
78.72,716.65
78.73,721.62
78.74,702.59
78.75,743.3
78.76,718.1
78.77,666.96
78.78,751.09
78.79,693.69
78.8,706.11
78.81,647.61
78.82,733.04
78.83,747.39
78.84,655.82
78.85,696.83
78.86,710.64
78.87,696.31
78.88,721.64
78.89,698.0
78.9,745.43
78.91,744.47
78.92,679.96
78.93,734.54
78.94,702.51
78.95,706.14
78.96,741.19
78.97,654.62
78.98,688.38
78.99,744.65
79.0,713.74
79.01,654.38
79.02,711.96
79.03,734.67
79.04,736.33
79.05,712.17
79.06,658.61
79.07,759.63
79.08,695.78
79.09,719.59
79.1,722.77
79.11,711.85
79.12,666.61
79.13,760.59
79.14,662.43
79.15,717.54
79.16,688.83
79.17,786.76
79.18,758.55
79.19,703.32
79.2,698.03
79.21,765.13
79.22,681.68
79.23,752.63
79.24,686.51
79.25,713.7
79.26,714.29
79.27,662.91
79.28,724.02
79.29,700.2
79.3,706.16
79.31,729.11
79.32,760.54
79.33,702.74
79.34,686.18
79.35,766.16
79.36,674.36
79.37,717.94
79.38,712.67
79.39,700.8
79.4,716.73
79.41,749.08
79.42,763.22
79.43,657.98
79.44,720.0
79.45,726.55
79.46,689.57
79.47,751.9
79.48,649.83
79.49,747.61
79.5,704.94
79.51,633.56
79.52,725.62
79.53,746.16
79.54,680.38
79.55,682.19
79.56,715.74
79.57,710.0
79.58,725.83
79.59,668.25
79.6,729.64
79.61,743.41
79.62,655.96
79.63,780.61
79.64,639.41
79.65,708.01
79.66,705.52
79.67,688.06
79.68,733.76
79.69,726.74
79.7,683.71
79.71,730.95
79.72,760.37
79.73,651.58
79.74,656.97
79.75,677.34
79.76,784.21
79.77,675.64
79.78,735.12
79.79,677.55
79.8,731.11
79.81,739.3
79.82,710.02
79.83,731.29
79.84,642.49
79.85,770.05
79.86,697.44
79.87,732.77
79.88,723.57
79.89,651.6
79.9,743.32
79.91,711.92
79.92,710.1
79.93,719.46
79.94,698.31
79.95,739.88
79.96,697.69
79.97,722.44
79.98,723.28
79.99,724.3
80.0,691.43
80.01,760.22
80.02,688.27
80.03,738.38
80.04,732.74
80.05,682.18
80.06,723.69
80.07,746.22
80.08,770.06
80.09,701.54
80.1,732.33
80.11,753.37
80.12,731.87
80.13,725.95
80.14,705.43
80.15,714.7
80.16,713.46
80.17,755.67
80.18,701.86
80.19,751.31
80.2,755.56
80.21,700.49
80.22,720.12
80.23,750.61
80.24,784.05
80.25,696.35
80.26,728.53
80.27,719.4
80.28,742.94
80.29,771.98
80.3,756.29
80.31,729.37
80.32,756.4
80.33,747.34
80.34,732.78
80.35,751.57
80.36,679.08
80.37,737.54
80.38,767.78
80.39,685.58
80.4,738.3
80.41,726.03
80.42,657.93
80.43,825.83
80.44,694.97
80.45,700.27
80.46,734.84
80.47,636.86
80.48,727.2
80.49,714.06
80.5,731.96
80.51,754.5
80.52,708.85
80.53,690.21
80.54,722.16
80.55,700.14
80.56,750.76
80.57,695.04
80.58,735.96
80.59,721.44
80.6,736.45
80.61,705.58
80.62,736.74
80.63,735.24
80.64,701.66
80.65,721.47
80.66,719.73
80.67,732.33
80.68,672.93
80.69,711.46
80.7,744.38
80.71,755.91
80.72,724.79
80.73,676.97
80.74,779.46
80.75,650.25
80.76,740.75
80.77,758.53
80.78,729.08
80.79,690.46
80.8,697.87
80.81,738.69
80.82,638.69
80.83,746.54
80.84,739.33
80.85,662.99
80.86,760.76
80.87,670.85
80.88,714.21
80.89,775.86
80.9,634.09
80.91,756.06
80.92,750.36
80.93,717.01
80.94,731.1
80.95,712.88
80.96,722.93
80.97,705.77
80.98,742.52
80.99,700.69
81.0,764.39
81.01,757.8
81.02,695.7
81.03,722.94
81.04,712.38
81.05,700.53
81.06,735.25
81.07,668.09
81.08,748.54
81.09,731.31
81.1,721.45
81.11,733.53
81.12,742.58
81.13,745.58
81.14,732.31
81.15,778.3
81.16,711.19
81.17,740.89
81.18,724.86
81.19,714.64
81.2,751.37
81.21,693.21
81.22,682.15
81.23,736.41
81.24,686.19
81.25,694.48
81.26,696.3
81.27,732.01
81.28,726.13
81.29,660.98
81.3,721.97
81.31,722.7
81.32,742.62
81.33,701.25
81.34,702.43
81.35,741.95
81.36,712.09
81.37,689.51
81.38,702.78
81.39,725.39
81.4,669.94
81.41,693.29
81.42,738.1
81.43,696.62
81.44,740.15
81.45,705.41
81.46,725.48
81.47,720.37
81.48,706.52
81.49,707.55
81.5,712.32
81.51,690.74
81.52,726.34
81.53,716.28
81.54,721.68
81.55,719.24
81.56,769.27
81.57,705.85
81.58,701.53
81.59,740.74
81.6,671.56
81.61,746.36
81.62,706.06
81.63,716.69
81.64,723.13
81.65,709.59
81.66,677.84
81.67,733.34
81.68,676.34
81.69,711.35
81.7,708.74
81.71,701.14
81.72,668.25
81.73,750.0
81.74,677.98
81.75,694.85
81.76,721.28
81.77,704.39
81.78,786.1
81.79,635.37
81.8,748.05
81.81,692.35
81.82,737.89
81.83,728.92
81.84,734.34
81.85,728.61
81.86,728.51
81.87,744.92
81.88,697.07
81.89,710.67
81.9,717.66
81.91,722.63
81.92,743.2
81.93,706.07
81.94,709.85
81.95,686.69
81.96,726.89
81.97,698.53
81.98,720.52
81.99,718.74
82.0,693.87
82.01,743.0
82.02,764.33
82.03,692.69
82.04,706.17
82.05,717.34
82.06,682.17
82.07,720.85
82.08,711.8
82.09,700.88
82.1,706.39
82.11,724.68
82.12,706.69
82.13,762.07
82.14,674.67
82.15,759.03
82.16,697.92
82.17,739.89
82.18,686.6
82.19,723.74
82.2,707.52
82.21,712.27
82.22,731.92
82.23,664.32
82.24,651.27
82.25,721.71
82.26,719.24
82.27,732.8
82.28,732.19
82.29,714.82
82.3,696.92
82.31,723.99
82.32,678.4
82.33,732.21
82.34,742.13
82.35,700.46
82.36,752.09
82.37,675.79
82.38,724.42
82.39,702.3
82.4,761.7
82.41,681.9
82.42,710.72
82.43,712.59
82.44,660.98
82.45,733.12
82.46,702.98
82.47,736.23
82.48,739.91
82.49,712.97
82.5,670.49
82.51,695.47
82.52,699.16
82.53,732.32
82.54,718.43
82.55,690.77
82.56,738.2
82.57,674.12
82.58,734.88
82.59,720.16
82.6,719.57
82.61,704.57
82.62,657.36
82.63,749.3
82.64,671.2
82.65,729.07
82.66,702.24
82.67,694.33
82.68,705.43
82.69,726.88
82.7,788.83
82.71,676.25
82.72,729.01
82.73,741.46
82.74,687.22
82.75,708.96
82.76,743.73
82.77,720.62
82.78,768.35
82.79,739.64
82.8,672.11
82.81,681.83
82.82,720.7
82.83,718.5
82.84,712.44
82.85,770.28
82.86,756.49
82.87,737.29
82.88,728.62
82.89,715.48
82.9,751.82
82.91,686.23
82.92,676.32
82.93,776.57
82.94,736.02
82.95,676.41
82.96,732.64
82.97,768.14
82.98,722.26
82.99,734.61
83.0,717.44
83.01,773.3
83.02,716.69
83.03,660.37
83.04,764.67
83.05,728.77
83.06,723.54
83.07,725.42
83.08,728.25
83.09,705.29
83.1,699.02
83.11,710.95
83.12,663.04
83.13,715.62
83.14,702.43
83.15,710.92
83.16,696.03
83.17,677.14
83.18,699.48
83.19,727.35
83.2,690.44
83.21,699.78
83.22,709.61
83.23,693.84
83.24,690.35
83.25,656.76
83.26,715.23
83.27,695.62
83.28,695.34
83.29,706.14
83.3,772.58
83.31,668.83
83.32,773.5
83.33,776.0
83.34,642.61
83.35,770.62
83.36,706.76
83.37,715.3
83.38,710.71
83.39,768.52
83.4,742.97
83.41,770.82
83.42,743.8
83.43,811.74
83.44,700.91
83.45,702.12
83.46,744.36
83.47,751.09
83.48,694.12
83.49,722.29
83.5,724.09
83.51,755.74
83.52,694.26
83.53,731.85
83.54,752.09
83.55,686.99
83.56,724.21
83.57,701.39
83.58,714.48
83.59,756.24
83.6,746.78
83.61,711.54
83.62,716.8
83.63,673.9
83.64,750.63
83.65,764.68
83.66,716.11
83.67,680.48
83.68,782.44
83.69,731.13
83.7,745.82
83.71,683.62
83.72,749.09
83.73,730.32
83.74,708.13
83.75,696.05
83.76,718.21
83.77,760.6
83.78,718.36
83.79,727.97
83.8,708.02
83.81,696.74
83.82,740.26
83.83,667.83
83.84,682.79
83.85,745.15
83.86,671.57
83.87,697.85
83.88,784.75
83.89,736.44
83.9,655.95
83.91,744.69
83.92,719.25
83.93,698.56
83.94,816.2
83.95,681.19
83.96,698.3
83.97,667.6
83.98,673.21
83.99,704.52
84.0,683.82
84.01,739.13
84.02,727.52
84.03,735.72
84.04,657.18
84.05,719.41
84.06,675.85
84.07,691.55
84.08,732.91
84.09,722.43
84.1,687.58
84.11,768.96
84.12,711.99
84.13,724.54
84.14,688.15
84.15,721.29
84.16,659.88
84.17,750.8
84.18,714.62
84.19,656.65
84.2,754.43
84.21,753.69
84.22,681.42
84.23,749.99
84.24,703.74
84.25,691.41
84.26,714.59
84.27,697.51
84.28,720.25
84.29,667.4
84.3,765.22
84.31,727.69
84.32,754.03
84.33,731.13
84.34,660.41
84.35,718.43
84.36,734.06
84.37,688.55
84.38,755.49
84.39,662.39
84.4,754.87
84.41,675.25
84.42,665.4
84.43,731.26
84.44,755.54
84.45,687.93
84.46,717.02
84.47,700.27
84.48,664.32
84.49,804.12
84.5,701.2
84.51,685.8
84.52,747.48
84.53,700.0
84.54,697.19
84.55,700.58
84.56,724.95
84.57,704.52
84.58,717.04
84.59,667.19
84.6,714.3
84.61,754.35
84.62,701.02
84.63,670.65
84.64,699.72
84.65,727.59
84.66,679.2
84.67,753.17
84.68,722.54
84.69,701.02
84.7,706.04
84.71,724.84
84.72,733.87
84.73,715.05
84.74,698.67
84.75,709.89
84.76,755.11
84.77,696.72
84.78,705.07
84.79,737.17
84.8,711.67
84.81,732.04
84.82,664.29
84.83,692.73
84.84,738.67
84.85,716.6
84.86,679.16
84.87,760.79
84.88,684.42
84.89,724.78
84.9,693.45
84.91,684.61
84.92,733.68
84.93,727.1
84.94,753.75
84.95,688.86
84.96,706.61
84.97,696.85
84.98,741.51
84.99,726.51
85.0,665.2
85.01,760.06
85.02,676.63
85.03,711.93
85.04,709.15
85.05,695.81
85.06,760.15
85.07,671.51
85.08,726.34
85.09,704.72
85.1,694.88
85.11,695.92
85.12,737.3
85.13,724.15
85.14,679.54
85.15,731.06
85.16,745.84
85.17,675.91
85.18,751.62
85.19,665.82
85.2,748.18
85.21,718.52
85.22,716.75
85.23,705.04
85.24,749.39
85.25,744.99
85.26,662.93
85.27,731.46
85.28,730.4
85.29,631.0
85.3,751.43
85.31,684.81
85.32,715.3
85.33,709.26
85.34,772.81
85.35,706.68
85.36,732.08
85.37,748.54
85.38,712.58
85.39,711.4
85.4,694.59
85.41,657.75
85.42,799.31
85.43,707.95
85.44,681.56
85.45,762.79
85.46,716.56
85.47,670.5
85.48,717.83
85.49,751.65
85.5,714.15
85.51,723.28
85.52,776.53
85.53,741.89
85.54,694.64
85.55,727.31
85.56,732.55
85.57,706.2
85.58,726.34
85.59,755.98
85.6,726.01
85.61,765.31
85.62,700.69
85.63,734.68
85.64,697.08
85.65,734.55
85.66,715.3
85.67,747.28
85.68,670.84
85.69,791.65
85.7,692.49
85.71,790.86
85.72,734.58
85.73,666.61
85.74,826.8
85.75,709.13
85.76,685.18
85.77,812.78
85.78,739.25
85.79,646.71
85.8,817.61
85.81,705.37
85.82,662.16
85.83,746.21
85.84,726.79
85.85,793.98
85.86,717.99
85.87,729.65
85.88,699.43
85.89,722.84
85.9,652.13
85.91,724.69
85.92,735.52
85.93,664.48
85.94,713.72
85.95,726.95
85.96,740.39
85.97,653.46
85.98,749.74
85.99,695.64
86.0,706.7
86.01,742.44
86.02,744.36
86.03,668.45
86.04,778.03
86.05,678.4
86.06,734.93
86.07,675.82
86.08,729.68
86.09,704.17
86.1,788.34
86.11,666.94
86.12,771.03
86.13,668.12
86.14,721.34
86.15,702.1
86.16,740.78
86.17,656.17
86.18,672.45
86.19,757.78
86.2,734.7
86.21,681.33
86.22,775.7
86.23,732.83
86.24,783.44
86.25,740.23
86.26,670.17
86.27,755.67
86.28,722.22
86.29,728.52
86.3,726.41
86.31,751.78
86.32,681.12
86.33,781.21
86.34,737.79
86.35,699.53
86.36,745.72
86.37,694.61
86.38,698.67
86.39,746.51
86.4,717.54
86.41,679.71
86.42,740.49
86.43,776.71
86.44,721.01
86.45,748.77
86.46,683.47
86.47,717.54
86.48,712.74
86.49,716.97
86.5,732.11
86.51,725.39
86.52,701.01
86.53,738.45
86.54,702.48
86.55,733.6
86.56,689.95
86.57,701.88
86.58,754.49
86.59,691.82
86.6,678.36
86.61,711.63
86.62,676.93
86.63,756.89
86.64,666.24
86.65,747.6
86.66,663.44
86.67,716.2
86.68,716.95
86.69,642.93
86.7,738.27
86.71,714.13
86.72,686.11
86.73,698.23
86.74,652.56
86.75,709.08
86.76,737.68
86.77,696.89
86.78,692.09
86.79,707.43
86.8,685.69
86.81,747.18
86.82,692.43
86.83,744.05
86.84,702.02
86.85,741.7
86.86,717.07
86.87,678.29
86.88,689.75
86.89,753.48
86.9,689.56
86.91,748.2
86.92,702.8
86.93,686.45
86.94,715.53
86.95,712.07
86.96,742.89
86.97,721.14
86.98,704.21
86.99,703.37
87.0,724.08
87.01,671.03
87.02,738.77
87.03,759.96
87.04,741.01
87.05,688.63
87.06,760.23
87.07,678.68
87.08,758.3
87.09,703.84
87.1,698.74
87.11,731.67
87.12,634.48
87.13,767.73
87.14,727.98
87.15,655.24
87.16,695.01
87.17,681.44
87.18,743.63
87.19,697.07
87.2,748.65
87.21,645.83
87.22,732.36
87.23,685.05
87.24,733.2
87.25,719.87
87.26,679.71
87.27,712.41
87.28,739.49
87.29,741.56
87.3,698.1
87.31,766.8
87.32,677.24
87.33,704.71
87.34,741.71
87.35,654.75
87.36,754.68
87.37,650.3
87.38,735.27
87.39,748.07
87.4,688.24
87.41,769.57
87.42,634.38
87.43,679.99
87.44,756.04
87.45,678.08
87.46,615.43
87.47,732.85
87.48,667.65
87.49,751.1
87.5,722.18
87.51,764.69
87.52,710.74
87.53,682.39
87.54,777.56
87.55,646.92
87.56,770.45
87.57,717.9
87.58,717.1
87.59,741.24
87.6,665.63
87.61,727.04
87.62,703.55
87.63,674.5
87.64,708.35
87.65,696.41
87.66,695.39
87.67,733.38
87.68,775.87
87.69,721.45
87.7,675.15
87.71,709.77
87.72,720.33
87.73,761.74
87.74,695.33
87.75,701.83
87.76,769.33
87.77,684.02
87.78,752.1
87.79,694.14
87.8,749.4
87.81,673.57
87.82,771.41
87.83,673.6
87.84,738.06
87.85,734.43
87.86,680.2
87.87,753.87
87.88,676.28
87.89,653.75
87.9,779.29
87.91,659.03
87.92,714.56
87.93,719.58
87.94,719.56
87.95,680.18
87.96,774.6
87.97,689.77
87.98,703.12
87.99,732.82
88.0,682.21
88.01,742.28
88.02,684.51
88.03,728.29
88.04,665.98
88.05,717.65
88.06,751.44
88.07,632.33
88.08,751.23
88.09,678.82
88.1,755.49
88.11,681.64
88.12,694.64
88.13,771.18
88.14,675.77
88.15,777.81
88.16,670.47
88.17,705.46
88.18,652.14
88.19,748.9
88.2,678.33
88.21,678.8
88.22,745.84
88.23,756.75
88.24,689.12
88.25,677.08
88.26,776.23
88.27,661.58
88.28,710.11
88.29,759.88
88.3,678.81
88.31,725.5
88.32,681.67
88.33,707.69
88.34,791.65
88.35,691.19
88.36,688.86
88.37,788.82
88.38,691.07
88.39,682.03
88.4,789.67
88.41,708.72
88.42,680.65
88.43,706.69
88.44,686.69
88.45,701.21
88.46,689.63
88.47,729.05
88.48,708.55
88.49,739.5
88.5,700.29
88.51,639.43
88.52,747.42
88.53,625.68
88.54,722.87
88.55,733.85
88.56,682.51
88.57,779.27
88.58,965.47
88.59,751.18
88.6,652.97
88.61,779.11
88.62,707.14
88.63,800.73
88.64,679.18
88.65,747.87
88.66,762.16
88.67,757.26
88.68,735.83
88.69,742.39
88.7,734.49
88.71,712.98
88.72,750.72
88.73,726.48
88.74,704.8
88.75,677.13
88.76,749.62
88.77,740.66
88.78,730.48
88.79,699.68
88.8,717.18
88.81,728.52
88.82,662.79
88.83,740.76
88.84,669.7
88.85,754.0
88.86,690.58
88.87,759.45
88.88,711.48
88.89,761.32
88.9,782.1
88.91,708.46
88.92,693.83
88.93,740.4
88.94,703.08
88.95,719.13
88.96,746.82
88.97,721.76
88.98,721.98
88.99,703.93
89.0,739.26
89.01,752.04
89.02,670.19
89.03,712.96
89.04,754.39
89.05,669.81
89.06,691.19
89.07,741.23
89.08,685.76
89.09,732.0
89.1,729.59
89.11,697.47
89.12,671.34
89.13,747.83
89.14,677.52
89.15,721.38
89.16,728.46
89.17,739.27
89.18,698.75
89.19,696.08
89.2,741.39
89.21,708.02
89.22,699.15
89.23,772.51
89.24,697.36
89.25,661.17
89.26,737.77
89.27,678.08
89.28,725.18
89.29,706.6
89.3,725.48
89.31,679.82
89.32,737.11
89.33,1092.82
89.34,1351.58
89.35,1370.6
89.36,1202.97
89.37,674.73
89.38,730.6
89.39,770.57
89.4,700.2
89.41,737.82
89.42,658.44
89.43,749.27
89.44,725.76
89.45,723.09
89.46,678.65
89.47,743.52
89.48,783.82
89.49,645.55
89.5,725.34
89.51,668.05
89.52,736.58
89.53,665.58
89.54,753.26
89.55,707.17
89.56,650.53
89.57,763.61
89.58,684.65
89.59,706.83
89.6,697.71
89.61,730.25
89.62,702.41
89.63,689.13
89.64,739.3
89.65,742.41
89.66,725.81
89.67,689.98
89.68,737.6
89.69,734.9
89.7,719.05
89.71,710.65
89.72,695.59
89.73,757.86
89.74,672.66
89.75,694.91
89.76,720.55
89.77,674.39
89.78,697.43
89.79,710.5
89.8,693.05
89.81,708.89
89.82,709.09
89.83,707.57
89.84,702.93
89.85,713.51
89.86,700.84
89.87,692.85
89.88,717.16
89.89,684.73
89.9,747.96
89.91,725.68
89.92,672.78
89.93,710.48
89.94,731.04
89.95,716.4
89.96,703.66
89.97,710.73
89.98,716.11
89.99,689.92
90.0,741.78
90.01,719.6
90.02,711.2
90.03,725.09
90.04,687.89
90.05,690.49
90.06,779.8
90.07,704.28
90.08,791.92
90.09,715.98
90.1,693.48
90.11,693.26
90.12,703.79
90.13,712.22
90.14,705.0
90.15,801.26
90.16,678.73
90.17,716.09
90.18,711.18
90.19,696.44
90.2,696.14
90.21,699.86
90.22,753.72
90.23,710.92
90.24,691.17
90.25,735.3
90.26,716.92
90.27,731.62
90.28,726.54
90.29,693.91
90.3,733.06
90.31,698.89
90.32,706.04
90.33,650.32
90.34,750.76
90.35,703.87
90.36,720.86
90.37,668.28
90.38,741.15
90.39,693.35
90.4,713.96
90.41,678.76
90.42,712.08
90.43,729.18
90.44,692.05
90.45,757.22
90.46,691.96
90.47,681.02
90.48,765.18
90.49,714.88
90.5,711.52
90.51,661.66
90.52,725.65
90.53,708.18
90.54,695.89
90.55,744.81
90.56,717.26
90.57,699.71
90.58,735.03
90.59,825.56
90.6,684.91
90.61,695.3
90.62,776.94
90.63,690.61
90.64,759.23
90.65,749.61
90.66,686.95
90.67,708.5
90.68,759.95
90.69,729.69
90.7,705.38
90.71,728.27
90.72,722.13
90.73,734.14
90.74,723.66
90.75,749.41
90.76,705.25
90.77,718.3
90.78,729.14
90.79,708.08
90.8,743.87
90.81,659.1
90.82,785.08
90.83,694.3
90.84,763.95
90.85,669.57
90.86,741.75
90.87,764.84
90.88,718.84
90.89,644.66
90.9,767.63
90.91,706.92
90.92,742.22
90.93,763.72
90.94,670.99
90.95,726.32
90.96,780.34
90.97,723.21
90.98,703.84
90.99,704.46
91.0,696.36
91.01,756.91
91.02,691.91
91.03,750.49
91.04,743.01
91.05,720.86
91.06,703.59
91.07,749.49
91.08,685.31
91.09,742.16
91.1,672.32
91.11,694.24
91.12,679.63
91.13,758.65
91.14,697.24
91.15,711.22
91.16,672.75
91.17,740.82
91.18,733.54
91.19,758.11
91.2,671.24
91.21,669.73
91.22,741.88
91.23,687.88
91.24,727.23
91.25,773.95
91.26,748.32
91.27,693.57
91.28,684.4
91.29,706.63
91.3,700.27
91.31,753.41
91.32,733.67
91.33,747.25
91.34,763.55
91.35,712.42
91.36,713.38
91.37,733.53
91.38,730.79
91.39,737.58
91.4,690.44
91.41,761.34
91.42,732.92
91.43,699.08
91.44,787.71
91.45,701.05
91.46,695.7
91.47,716.96
91.48,694.65
91.49,703.1
91.5,751.78
91.51,704.15
91.52,750.72
91.53,706.45
91.54,675.92
91.55,704.2
91.56,743.25
91.57,743.78
91.58,690.72
91.59,755.44
91.6,728.36
91.61,693.58
91.62,754.66
91.63,720.81
91.64,703.91
91.65,748.9
91.66,699.12
91.67,795.76
91.68,756.21
91.69,680.37
91.7,767.45
91.71,743.27
91.72,725.19
91.73,699.3
91.74,676.18
91.75,733.49
91.76,701.85
91.77,701.62
91.78,686.96
91.79,736.83
91.8,668.5
91.81,759.62
91.82,654.01
91.83,663.62
91.84,742.47
91.85,678.01
91.86,765.09
91.87,695.2
91.88,712.67
91.89,715.11
91.9,705.94
91.91,724.98
91.92,674.24
91.93,708.27
91.94,722.64
91.95,667.36
91.96,709.48
91.97,699.96
91.98,738.92
91.99,699.85
92.0,748.43
92.01,724.91
92.02,703.37
92.03,667.47
92.04,746.97
92.05,690.02
92.06,747.68
92.07,659.06
92.08,764.75
92.09,693.93
92.1,703.26
92.11,697.0
92.12,638.62
92.13,726.22
92.14,736.1
92.15,717.8
92.16,753.51
92.17,692.9
92.18,725.75
92.19,724.96
92.2,703.0
92.21,728.34
92.22,673.15
92.23,709.74
92.24,696.2
92.25,690.74
92.26,709.0
92.27,756.26
92.28,698.76
92.29,690.93
92.3,668.89
92.31,672.83
92.32,735.17
92.33,722.47
92.34,651.31
92.35,719.04
92.36,715.86
92.37,733.74
92.38,709.02
92.39,691.31
92.4,685.3
92.41,716.75
92.42,744.11
92.43,723.43
92.44,641.81
92.45,744.54
92.46,700.09
92.47,793.02
92.48,673.18
92.49,681.6
92.5,688.81
92.51,751.18
92.52,686.04
92.53,743.7
92.54,730.39
92.55,775.18
92.56,738.48
92.57,658.14
92.58,749.69
92.59,687.12
92.6,676.18
92.61,735.38
92.62,752.72
92.63,691.4
92.64,760.66
92.65,721.96
92.66,681.79
92.67,737.53
92.68,687.49
92.69,709.47
92.7,720.99
92.71,692.14
92.72,692.27
92.73,718.25
92.74,740.86
92.75,675.45
92.76,753.17
92.77,685.19
92.78,731.84
92.79,734.25
92.8,689.39
92.81,685.41
92.82,736.97
92.83,710.43
92.84,719.14
92.85,699.67
92.86,668.53
92.87,770.6
92.88,689.95
92.89,705.66
92.9,705.22
92.91,753.5
92.92,657.41
92.93,771.05
92.94,691.41
92.95,730.64
92.96,749.33
92.97,718.64
92.98,684.23
92.99,744.54
93.0,701.73
93.01,697.53
93.02,723.99
93.03,711.08
93.04,713.9
93.05,774.6
93.06,661.22
93.07,699.57
93.08,710.6
93.09,693.66
93.1,636.93
93.11,720.14
93.12,751.22
93.13,709.66
93.14,716.67
93.15,725.7
93.16,689.61
93.17,713.72
93.18,665.78
93.19,693.33
93.2,739.32
93.21,788.76
93.22,704.58
93.23,711.46
93.24,709.39
93.25,712.04
93.26,779.81
93.27,713.9
93.28,750.57
93.29,745.49
93.3,697.61
93.31,704.53
93.32,735.15
93.33,681.56
93.34,703.26
93.35,704.83
93.36,807.62
93.37,709.89
93.38,749.39
93.39,709.75
93.4,700.09
93.41,734.29
93.42,718.78
93.43,763.57
93.44,725.25
93.45,667.43
93.46,749.27
93.47,675.83
93.48,775.52
93.49,689.54
93.5,688.16
93.51,729.55
93.52,724.57
93.53,669.57
93.54,734.85
93.55,740.62
93.56,691.06
93.57,718.44
93.58,710.0
93.59,670.37
93.6,693.07
93.61,719.29
93.62,661.08
93.63,721.94
93.64,727.95
93.65,716.89
93.66,728.67
93.67,629.98
93.68,750.04
93.69,668.92
93.7,801.51
93.71,685.06
93.72,764.01
93.73,683.34
93.74,783.56
93.75,706.8
93.76,756.15
93.77,645.03
93.78,664.17
93.79,701.29
93.8,790.14
93.81,675.01
93.82,685.99
93.83,802.18
93.84,719.67
93.85,715.11
93.86,648.48
93.87,729.81
93.88,715.32
93.89,742.13
93.9,723.65
93.91,787.34
93.92,670.78
93.93,766.72
93.94,703.89
93.95,708.42
93.96,746.94
93.97,693.41
93.98,770.88
93.99,665.8
94.0,725.82
94.01,654.29
94.02,767.24
94.03,727.48
94.04,685.73
94.05,710.67
94.06,709.76
94.07,691.57
94.08,770.82
94.09,751.21
94.1,714.22
94.11,637.16
94.12,676.8
94.13,658.97
94.14,748.41
94.15,683.92
94.16,783.28
94.17,697.08
94.18,678.92
94.19,735.12
94.2,663.64
94.21,761.11
94.22,713.58
94.23,692.25
94.24,720.43
94.25,741.57
94.26,703.04
94.27,717.82
94.28,800.39
94.29,720.06
94.3,670.43
94.31,735.0
94.32,722.43
94.33,683.06
94.34,714.25
94.35,706.63
94.36,726.43
94.37,707.52
94.38,730.35
94.39,687.17
94.4,747.72
94.41,724.97
94.42,741.52
94.43,713.28
94.44,680.45
94.45,763.33
94.46,684.41
94.47,745.53
94.48,731.82
94.49,685.88
94.5,688.26
94.51,740.62
94.52,642.29
94.53,688.33
94.54,754.14
94.55,728.88
94.56,699.63
94.57,752.92
94.58,667.73
94.59,722.07
94.6,680.06
94.61,697.72
94.62,728.18
94.63,688.52
94.64,676.72
94.65,682.29
94.66,697.17
94.67,704.11
94.68,732.65
94.69,756.92
94.7,726.81
94.71,662.48
94.72,674.57
94.73,711.74
94.74,726.04
94.75,702.25
94.76,709.69
94.77,680.74
94.78,729.52
94.79,758.13
94.8,711.56
94.81,676.81
94.82,741.87
94.83,675.4
94.84,734.34
94.85,712.3
94.86,684.01
94.87,758.61
94.88,683.36
94.89,706.52
94.9,734.94
94.91,715.78
94.92,679.96
94.93,750.25
94.94,747.07
94.95,679.46
94.96,723.52
94.97,707.1
94.98,714.18
94.99,692.36
95.0,754.11
95.01,661.67
95.02,732.05
95.03,664.02
95.04,686.82
95.05,722.94
95.06,753.42
95.07,658.15
95.08,714.44
95.09,726.8
95.1,730.9
95.11,677.62
95.12,701.2
95.13,723.36
95.14,703.6
95.15,702.39
95.16,697.88
95.17,750.4
95.18,704.89
95.19,706.89
95.2,727.73
95.21,721.14
95.22,737.92
95.23,754.54
95.24,701.12
95.25,703.64
95.26,681.79
95.27,714.57
95.28,711.15
95.29,709.65
95.3,746.33
95.31,748.92
95.32,676.82
95.33,744.08
95.34,683.4
95.35,693.06
95.36,726.71
95.37,679.33
95.38,716.14
95.39,742.86
95.4,746.34
95.41,654.2
95.42,715.87
95.43,700.23
95.44,685.86
95.45,702.15
95.46,740.35
95.47,704.2
95.48,709.99
95.49,763.93
95.5,670.12
95.51,714.17
95.52,713.69
95.53,713.09
95.54,679.83
95.55,670.7
95.56,732.65
95.57,697.21
95.58,721.56
95.59,704.28
95.6,702.35
95.61,735.79
95.62,732.25
95.63,764.94
95.64,661.91
95.65,699.94
95.66,706.5
95.67,733.44
95.68,744.05
95.69,695.79
95.7,726.59
95.71,745.24
95.72,769.01
95.73,687.01
95.74,724.3
95.75,671.99
95.76,744.16
95.77,699.45
95.78,713.27
95.79,784.11
95.8,671.38
95.81,724.67
95.82,757.49
95.83,679.22
95.84,723.65
95.85,666.24
95.86,746.21
95.87,712.39
95.88,689.61
95.89,676.12
95.9,747.07
95.91,726.16
95.92,746.39
95.93,751.32
95.94,783.25
95.95,706.34
95.96,703.54
95.97,717.32
95.98,762.99
95.99,728.04
96.0,698.18
96.01,757.42
96.02,698.93
96.03,740.25
96.04,703.73
96.05,775.8
96.06,725.14
