Time (s),Current (uA)
0.0,927004.99
0.01,1358.66
0.02,1384.26
0.03,1380.33
0.04,1442.83
0.05,1403.18
0.06,1418.68
0.07,1393.62
0.08,1373.35
0.09,1422.92
0.1,1367.05
0.11,1431.93
0.12,1393.74
0.13,1420.78
0.14,1395.19
0.15,993.51
0.16,725.59
0.17,765.44
0.18,689.63
0.19,724.38
0.2,727.02
0.21,741.29
0.22,687.24
0.23,737.76
0.24,761.16
0.25,716.54
0.26,667.0
0.27,736.69
0.28,742.39
0.29,748.9
0.3,707.0
0.31,683.87
0.32,781.86
0.33,680.13
0.34,726.64
0.35,752.01
0.36,761.76
0.37,714.31
0.38,749.15
0.39,718.93
0.4,697.74
0.41,772.64
0.42,660.93
0.43,725.43
0.44,781.08
0.45,767.69
0.46,683.93
0.47,729.0
0.48,694.9
0.49,744.21
0.5,749.49
0.51,752.95
0.52,674.65
0.53,775.23
0.54,727.79
0.55,690.88
0.56,716.21
0.57,746.3
0.58,776.28
0.59,708.09
0.6,716.65
0.61,745.01
0.62,2358.51
0.63,729.8
0.64,715.11
0.65,717.73
0.66,759.32
0.67,777.82
0.68,731.9
0.69,726.01
0.7,744.06
0.71,699.48
0.72,783.4
0.73,726.21
0.74,741.96
0.75,752.73
0.76,698.26
0.77,706.03
0.78,793.94
0.79,673.16
0.8,764.36
0.81,762.28
0.82,764.7
0.83,668.63
0.84,759.66
0.85,710.44
0.86,755.75
0.87,765.1
0.88,742.65
0.89,694.2
0.9,741.43
0.91,749.66
0.92,740.69
0.93,728.72
0.94,655.16
0.95,736.72
0.96,687.03
0.97,707.29
0.98,699.58
0.99,775.46
1.0,668.79
1.01,712.93
1.02,703.75
1.03,748.75
1.04,746.9
1.05,672.41
1.06,727.34
1.07,715.41
1.08,688.15
1.09,741.57
1.1,799.03
1.11,671.53
1.12,748.74
1.13,677.33
1.14,727.19
1.15,720.56
1.16,712.48
1.17,740.14
1.18,701.1
1.19,768.41
1.2,707.28
1.21,679.5
1.22,776.06
1.23,686.69
1.24,704.83
1.25,720.23
1.26,677.72
1.27,766.61
1.28,710.22
1.29,702.28
1.3,746.46
1.31,691.34
1.32,712.78
1.33,697.42
1.34,748.65
1.35,669.79
1.36,775.81
1.37,662.5
1.38,740.12
1.39,693.93
1.4,704.76
1.41,763.35
1.42,707.78
1.43,684.96
1.44,748.02
1.45,719.79
1.46,661.58
1.47,735.51
1.48,725.62
1.49,742.63
1.5,698.61
1.51,700.61
1.52,727.78
1.53,709.97
1.54,740.82
1.55,685.85
1.56,758.01
1.57,660.97
1.58,747.28
1.59,727.48
1.6,657.27
1.61,770.56
1.62,670.71
1.63,726.08
1.64,750.26
1.65,1410.86
1.66,1644.03
1.67,744.21
1.68,693.94
1.69,743.73
1.7,743.84
1.71,664.51
1.72,734.22
1.73,662.65
1.74,705.56
1.75,709.85
1.76,747.36
1.77,687.7
1.78,759.1
1.79,675.4
1.8,762.51
1.81,717.4
1.82,675.87
1.83,749.76
1.84,716.69
1.85,703.01
1.86,746.56
1.87,690.93
1.88,773.72
1.89,685.06
1.9,741.58
1.91,732.5
1.92,711.41
1.93,701.26
1.94,740.31
1.95,720.46
1.96,740.11
1.97,697.96
1.98,704.43
1.99,711.04
2.0,739.18
2.01,676.96
2.02,719.56
2.03,720.25
2.04,706.3
2.05,757.18
2.06,705.84
2.07,722.04
2.08,702.15
2.09,685.95
2.1,753.64
2.11,695.73
2.12,690.42
2.13,714.63
2.14,716.42
2.15,719.54
2.16,693.21
2.17,718.77
2.18,710.83
2.19,738.93
2.2,745.22
2.21,766.87
2.22,708.11
2.23,686.45
2.24,718.93
2.25,734.77
2.26,697.82
2.27,735.76
2.28,661.44
2.29,703.87
2.3,657.33
2.31,736.55
2.32,752.04
2.33,722.77
2.34,678.84
2.35,741.68
2.36,701.18
2.37,734.16
2.38,733.16
2.39,721.01
2.4,695.05
2.41,745.41
2.42,678.86
2.43,719.5
2.44,749.75
2.45,702.89
2.46,726.88
2.47,710.19
2.48,714.24
2.49,756.34
2.5,714.69
2.51,732.73
2.52,722.2
2.53,719.35
2.54,691.49
2.55,737.71
2.56,726.15
2.57,704.46
2.58,709.91
2.59,758.48
2.6,717.15
2.61,747.93
2.62,698.48
2.63,705.38
2.64,676.0
2.65,712.15
2.66,721.99
2.67,1258.35
2.68,2351.65
2.69,687.8
2.7,719.15
2.71,725.57
2.72,718.76
2.73,686.96
2.74,742.91
2.75,718.67
2.76,716.93
2.77,756.06
2.78,714.19
2.79,712.1
2.8,765.08
2.81,696.7
2.82,726.23
2.83,700.89
2.84,727.1
2.85,725.6
2.86,700.33
2.87,717.77
2.88,766.87
2.89,725.51
2.9,735.29
2.91,725.47
2.92,746.54
2.93,716.27
2.94,736.04
2.95,711.11
2.96,735.58
2.97,714.95
2.98,715.17
2.99,759.21
3.0,724.96
3.01,739.29
3.02,748.76
3.03,705.71
3.04,720.74
3.05,712.19
3.06,668.78
3.07,738.31
3.08,678.09
3.09,709.29
3.1,723.46
3.11,697.97
3.12,779.97
3.13,720.82
3.14,732.81
3.15,728.19
3.16,720.93
3.17,744.65
3.18,690.44
3.19,667.47
3.2,763.63
3.21,720.42
3.22,740.91
3.23,735.1
3.24,687.17
3.25,718.28
3.26,683.58
3.27,728.52
3.28,657.66
3.29,725.51
3.3,743.73
3.31,734.57
3.32,731.51
3.33,707.97
3.34,749.62
3.35,709.92
3.36,736.86
3.37,756.15
3.38,670.31
3.39,702.83
3.4,681.13
3.41,760.23
3.42,705.56
3.43,671.92
3.44,776.75
3.45,738.24
3.46,693.77
3.47,744.15
3.48,705.76
3.49,746.3
3.5,739.8
3.51,926.85
3.52,1394.09
3.53,1381.3
3.54,854.97
3.55,736.94
3.56,684.09
3.57,719.96
3.58,780.72
3.59,707.51
3.6,713.79
3.61,728.99
3.62,712.98
3.63,774.64
3.64,701.22
3.65,730.04
3.66,769.05
3.67,705.62
3.68,727.77
3.69,779.18
3.7,695.42
3.71,677.73
3.72,753.73
3.73,735.02
3.74,692.53
3.75,718.36
3.76,754.38
3.77,720.54
3.78,733.69
3.79,717.99
3.8,758.49
3.81,673.08
3.82,758.84
3.83,757.23
3.84,674.47
3.85,714.32
3.86,737.7
3.87,703.65
3.88,746.36
3.89,703.19
3.9,741.68
3.91,715.06
3.92,743.92
3.93,698.52
3.94,754.43
3.95,702.53
3.96,795.76
3.97,705.74
3.98,728.46
3.99,710.63
4.0,702.66
4.01,757.89
4.02,687.03
4.03,735.13
4.04,723.0
4.05,668.21
4.06,762.15
4.07,713.96
4.08,691.05
4.09,716.51
4.1,742.54
4.11,715.98
4.12,737.45
4.13,732.39
4.14,710.1
4.15,725.16
4.16,698.43
4.17,714.99
4.18,727.64
4.19,688.36
4.2,724.12
4.21,726.78
4.22,738.28
4.23,682.99
4.24,725.97
4.25,727.16
4.26,703.53
4.27,692.84
4.28,746.93
4.29,686.88
4.3,741.18
4.31,732.6
4.32,712.05
4.33,754.55
4.34,658.17
4.35,760.93
4.36,691.34
4.37,718.76
4.38,683.85
4.39,746.43
4.4,728.11
4.41,712.41
4.42,748.76
4.43,676.89
4.44,714.62
4.45,742.01
4.46,708.77
4.47,737.47
4.48,687.13
4.49,706.5
4.5,734.21
4.51,675.09
4.52,758.94
4.53,689.59
4.54,699.65
4.55,743.38
4.56,706.9
4.57,717.72
4.58,680.05
4.59,715.08
4.6,716.57
4.61,724.62
4.62,677.9
4.63,716.37
4.64,757.74
4.65,648.07
4.66,737.02
4.67,717.61
4.68,699.59
4.69,740.38
4.7,708.19
4.71,696.09
4.72,734.26
4.73,727.59
4.74,765.72
4.75,689.16
4.76,754.82
4.77,688.63
4.78,683.25
4.79,755.52
4.8,720.09
4.81,723.13
4.82,680.79
4.83,739.06
4.84,695.47
4.85,667.38
4.86,709.99
4.87,701.05
4.88,709.9
4.89,767.75
4.9,662.83
4.91,735.71
4.92,700.26
4.93,785.68
4.94,736.58
4.95,713.54
4.96,698.75
4.97,734.39
4.98,698.9
4.99,699.86
5.0,769.46
5.01,672.67
5.02,721.3
5.03,705.39
5.04,727.84
5.05,705.92
5.06,728.45
5.07,687.15
5.08,742.8
5.09,660.53
5.1,699.94
5.11,766.65
5.12,704.46
5.13,676.27
5.14,769.87
5.15,706.35
5.16,728.13
5.17,690.91
5.18,730.67
5.19,731.3
5.2,746.44
5.21,694.65
5.22,683.01
5.23,719.59
5.24,727.69
5.25,770.7
5.26,704.03
5.27,703.89
5.28,693.6
5.29,710.89
5.3,707.0
5.31,733.78
5.32,675.53
5.33,798.44
5.34,720.47
5.35,693.16
5.36,760.19
5.37,712.52
5.38,718.01
5.39,715.18
5.4,685.56
5.41,734.28
5.42,716.67
5.43,759.19
5.44,703.4
5.45,770.49
5.46,697.89
5.47,708.38
5.48,768.99
5.49,728.44
5.5,742.11
5.51,739.03
5.52,717.81
5.53,704.99
5.54,737.84
5.55,725.29
5.56,702.94
5.57,779.91
5.58,730.49
5.59,663.35
5.6,834.8
5.61,662.71
5.62,771.95
5.63,764.71
5.64,674.7
5.65,755.82
5.66,725.33
5.67,721.54
5.68,771.22
5.69,725.79
5.7,709.69
5.71,713.78
5.72,710.62
5.73,776.11
5.74,679.65
5.75,744.82
5.76,726.5
5.77,736.8
5.78,724.43
5.79,731.9
5.8,725.87
5.81,689.86
5.82,729.73
5.83,747.86
5.84,752.32
5.85,649.74
5.86,751.35
5.87,698.61
5.88,788.79
5.89,740.22
5.9,705.4
5.91,768.68
5.92,700.96
5.93,684.37
5.94,772.24
5.95,726.62
5.96,726.67
5.97,641.17
5.98,738.96
5.99,659.25
6.0,726.22
6.01,742.02
6.02,694.3
6.03,750.92
6.04,712.15
6.05,677.99
6.06,730.71
6.07,718.06
6.08,745.26
6.09,702.24
6.1,692.91
6.11,714.73
6.12,715.12
6.13,784.93
6.14,658.05
6.15,783.51
6.16,624.64
6.17,730.5
6.18,733.39
6.19,653.21
6.2,733.07
6.21,733.54
6.22,652.55
6.23,749.69
6.24,636.32
6.25,738.02
6.26,736.92
6.27,749.47
6.28,713.24
6.29,678.96
6.3,790.38
6.31,701.72
6.32,743.6
6.33,635.09
6.34,748.47
6.35,692.73
6.36,647.79
6.37,731.07
6.38,772.73
6.39,657.42
6.4,722.84
6.41,688.64
6.42,797.77
6.43,712.97
6.44,777.2
6.45,752.7
6.46,700.18
6.47,820.92
6.48,667.05
6.49,737.59
6.5,679.71
6.51,705.9
6.52,723.88
6.53,773.43
6.54,701.17
6.55,799.06
6.56,707.68
6.57,721.58
6.58,682.49
6.59,736.87
6.6,699.83
6.61,692.61
6.62,714.17
6.63,730.55
6.64,647.45
6.65,765.35
6.66,705.56
6.67,734.06
6.68,757.06
6.69,721.86
6.7,771.0
6.71,647.53
6.72,761.75
6.73,739.22
6.74,724.7
6.75,716.93
6.76,707.11
6.77,722.07
6.78,768.83
6.79,723.15
6.8,675.13
6.81,715.73
6.82,731.7
6.83,722.39
6.84,759.39
6.85,705.9
6.86,708.47
6.87,691.36
6.88,716.15
6.89,695.04
6.9,707.8
6.91,734.24
6.92,641.13
6.93,739.81
6.94,697.42
6.95,732.77
6.96,711.43
6.97,688.98
6.98,702.55
6.99,730.88
7.0,696.1
7.01,746.8
7.02,682.8
7.03,722.17
7.04,716.67
7.05,774.61
7.06,703.16
7.07,689.65
7.08,716.55
7.09,706.49
7.1,737.53
7.11,744.04
7.12,661.68
7.13,712.74
7.14,756.01
7.15,657.58
7.16,716.68
7.17,670.64
7.18,740.21
7.19,705.54
7.2,732.52
7.21,702.38
7.22,713.7
7.23,759.93
7.24,693.76
7.25,715.44
7.26,696.18
7.27,720.66
7.28,718.56
7.29,704.59
7.3,715.67
7.31,764.9
7.32,682.78
7.33,734.85
7.34,680.22
7.35,712.11
7.36,707.36
7.37,683.79
7.38,746.29
7.39,717.28
7.4,700.54
7.41,761.52
7.42,701.0
7.43,698.37
7.44,719.16
7.45,741.81
7.46,711.19
7.47,676.64
7.48,701.27
7.49,670.26
7.5,744.47
7.51,689.1
7.52,718.18
7.53,724.58
7.54,710.35
7.55,703.61
7.56,718.78
7.57,729.52
7.58,719.3
7.59,712.3
7.6,683.98
7.61,767.64
7.62,720.79
7.63,710.4
7.64,714.46
7.65,712.93
7.66,731.37
7.67,656.65
7.68,742.96
7.69,764.13
7.7,702.79
7.71,724.86
7.72,748.96
7.73,721.34
7.74,701.86
7.75,725.4
7.76,729.61
7.77,713.15
7.78,729.63
7.79,741.97
7.8,701.46
7.81,713.26
7.82,726.17
7.83,679.37
7.84,692.26
7.85,732.23
7.86,751.8
7.87,695.53
7.88,712.9
7.89,762.3
7.9,749.3
7.91,672.5
7.92,741.62
7.93,768.31
7.94,678.18
7.95,730.83
7.96,705.13
7.97,709.69
7.98,730.76
7.99,700.54
8.0,708.53
8.01,762.19
8.02,720.19
8.03,689.83
8.04,692.34
8.05,695.68
8.06,734.99
8.07,737.0
8.08,681.48
8.09,694.73
8.1,743.17
8.11,696.77
8.12,689.34
8.13,747.9
8.14,693.65
8.15,720.73
8.16,680.04
8.17,732.78
8.18,678.46
8.19,759.97
8.2,721.56
8.21,732.17
8.22,721.99
8.23,748.97
8.24,738.06
8.25,701.13
8.26,693.88
8.27,730.62
8.28,743.46
8.29,660.88
8.3,741.05
8.31,765.29
8.32,698.56
8.33,738.17
8.34,711.45
8.35,731.2
8.36,732.61
8.37,734.45
8.38,737.73
8.39,698.37
8.4,741.58
8.41,752.21
8.42,698.48
8.43,665.83
8.44,737.84
8.45,723.24
8.46,732.77
8.47,783.67
8.48,728.54
8.49,749.26
8.5,688.8
8.51,758.66
8.52,761.34
8.53,714.27
8.54,759.21
8.55,750.5
8.56,744.52
8.57,680.2
8.58,783.11
8.59,710.23
8.6,739.16
8.61,758.77
8.62,699.47
8.63,694.52
8.64,757.06
8.65,754.33
8.66,773.09
8.67,711.36
8.68,714.31
8.69,723.36
8.7,705.67
8.71,733.53
8.72,757.47
8.73,735.4
8.74,682.46
8.75,756.44
8.76,750.2
8.77,689.65
8.78,748.6
8.79,736.69
8.8,748.09
8.81,752.3
8.82,707.11
8.83,761.05
8.84,666.1
8.85,689.22
8.86,767.14
8.87,682.04
8.88,744.54
8.89,655.61
8.9,742.57
8.91,706.65
8.92,730.02
8.93,740.05
8.94,759.31
8.95,717.12
8.96,751.95
8.97,731.41
8.98,737.0
8.99,619.39
9.0,749.12
9.01,704.57
9.02,660.42
9.03,697.08
9.04,691.28
9.05,780.75
9.06,662.81
9.07,730.99
9.08,786.97
9.09,691.44
9.1,750.43
9.11,758.08
9.12,718.85
9.13,677.87
9.14,734.21
9.15,696.24
9.16,713.76
9.17,759.41
9.18,699.13
9.19,672.47
9.2,699.13
9.21,710.81
9.22,671.53
9.23,719.36
9.24,720.11
9.25,732.23
9.26,670.44
9.27,806.1
9.28,739.93
9.29,696.43
9.3,767.36
9.31,710.35
9.32,738.19
9.33,754.52
9.34,722.37
9.35,768.36
9.36,706.21
9.37,724.11
9.38,718.48
9.39,688.47
9.4,749.19
9.41,712.42
9.42,771.51
9.43,707.08
9.44,774.18
9.45,758.47
9.46,699.23
9.47,715.82
9.48,764.24
9.49,711.58
9.5,718.11
9.51,711.22
9.52,754.95
9.53,769.39
9.54,671.82
9.55,734.15
9.56,782.26
9.57,690.91
9.58,768.02
9.59,735.88
9.6,699.96
9.61,763.81
9.62,705.23
9.63,718.29
9.64,734.17
9.65,764.17
9.66,728.4
9.67,778.33
9.68,697.56
9.69,742.32
9.7,738.03
9.71,711.65
9.72,689.83
9.73,743.43
9.74,656.48
9.75,722.17
9.76,681.72
9.77,669.96
9.78,732.63
9.79,752.89
9.8,699.49
9.81,743.75
9.82,694.33
9.83,746.91
9.84,733.03
9.85,741.06
9.86,740.48
9.87,726.08
9.88,726.89
9.89,710.95
9.9,735.85
9.91,717.48
9.92,692.83
9.93,669.67
9.94,726.07
9.95,675.38
9.96,754.03
9.97,685.66
9.98,736.19
9.99,696.57
10.0,705.25
10.01,740.38
10.02,732.39
10.03,673.4
10.04,712.48
10.05,677.21
10.06,755.63
10.07,705.11
10.08,712.95
10.09,671.57
10.1,712.54
10.11,707.53
10.12,745.73
10.13,758.08
10.14,712.75
10.15,707.2
10.16,688.41
10.17,742.53
10.18,736.91
10.19,715.75
10.2,722.61
10.21,682.43
10.22,720.8
10.23,696.76
10.24,773.54
10.25,718.39
10.26,741.32
10.27,697.26
10.28,756.03
10.29,673.98
10.3,763.29
10.31,655.96
10.32,757.5
10.33,704.95
10.34,716.04
10.35,734.15
10.36,709.51
10.37,695.59
10.38,709.93
10.39,678.08
10.4,708.65
10.41,803.46
10.42,732.03
10.43,697.47
10.44,712.78
10.45,713.17
10.46,673.99
10.47,712.92
10.48,727.91
10.49,731.65
10.5,684.82
10.51,711.92
10.52,661.84
10.53,743.8
10.54,701.21
10.55,667.9
10.56,722.17
10.57,744.84
10.58,720.39
10.59,715.29
10.6,718.0
10.61,730.99
10.62,689.53
10.63,724.43
10.64,735.38
10.65,733.49
10.66,695.83
10.67,697.8
10.68,700.54
10.69,729.41
10.7,735.73
10.71,674.14
10.72,749.01
10.73,683.03
10.74,696.9
10.75,724.24
10.76,667.74
10.77,708.52
10.78,682.86
10.79,723.93
10.8,733.83
10.81,732.16
10.82,695.86
10.83,689.3
10.84,711.81
10.85,756.54
10.86,698.08
10.87,722.81
10.88,747.33
10.89,668.48
10.9,735.93
10.91,696.33
10.92,764.11
10.93,719.12
10.94,676.58
10.95,750.96
10.96,677.49
10.97,702.9
10.98,714.25
10.99,702.55
11.0,706.89
11.01,723.81
11.02,703.79
11.03,692.29
11.04,742.0
11.05,728.18
11.06,690.22
11.07,690.29
11.08,728.31
11.09,723.62
11.1,757.26
11.11,677.32
11.12,728.14
11.13,727.5
11.14,707.99
11.15,711.61
11.16,732.98
11.17,758.4
11.18,676.46
11.19,709.49
11.2,794.13
11.21,669.45
11.22,738.55
11.23,749.02
11.24,717.65
11.25,710.95
11.26,731.48
11.27,705.12
11.28,692.23
11.29,714.16
11.3,749.22
11.31,705.61
11.32,682.49
11.33,738.11
11.34,706.28
11.35,679.83
11.36,722.79
11.37,687.58
11.38,728.58
11.39,778.61
11.4,700.07
11.41,746.72
11.42,679.48
11.43,704.29
11.44,758.98
11.45,731.44
11.46,725.56
11.47,713.54
11.48,693.15
11.49,709.57
11.5,717.25
11.51,718.96
11.52,683.44
11.53,736.25
11.54,702.69
11.55,700.02
11.56,764.4
11.57,726.94
11.58,724.4
11.59,755.93
11.6,701.47
11.61,699.68
11.62,731.04
11.63,729.73
11.64,746.12
11.65,701.31
11.66,749.96
11.67,673.28
11.68,796.27
11.69,744.49
11.7,673.93
11.71,750.41
11.72,753.36
11.73,727.18
11.74,685.51
11.75,683.28
11.76,739.6
11.77,693.21
11.78,693.4
11.79,706.71
11.8,707.78
11.81,709.6
11.82,684.28
11.83,719.44
11.84,738.19
11.85,736.84
11.86,725.56
11.87,731.58
11.88,747.25
11.89,674.07
11.9,759.88
11.91,711.94
11.92,757.42
11.93,717.99
11.94,754.77
11.95,694.64
11.96,717.97
11.97,701.82
11.98,712.8
11.99,723.74
12.0,696.45
12.01,770.01
12.02,710.18
12.03,732.24
12.04,746.63
12.05,680.89
12.06,719.91
12.07,731.65
12.08,721.02
12.09,756.72
12.1,742.09
12.11,735.71
12.12,686.52
12.13,752.36
12.14,737.95
12.15,666.92
12.16,783.26
12.17,723.3
12.18,679.24
12.19,811.85
12.2,753.28
12.21,679.2
12.22,718.57
12.23,739.78
12.24,684.0
12.25,764.93
12.26,763.66
12.27,704.35
12.28,708.48
12.29,749.14
12.3,701.85
12.31,725.64
12.32,728.74
12.33,674.08
12.34,708.14
12.35,746.25
12.36,698.33
12.37,792.14
12.38,688.63
12.39,648.28
12.4,761.89
12.41,741.22
12.42,654.24
12.43,773.74
12.44,677.39
12.45,738.4
12.46,750.7
12.47,666.37
12.48,742.27
12.49,745.64
12.5,743.82
12.51,740.16
12.52,733.1
12.53,700.92
12.54,757.24
12.55,690.56
12.56,760.25
12.57,750.03
12.58,725.6
12.59,670.11
12.6,783.59
12.61,674.21
12.62,733.73
12.63,707.6
12.64,686.0
12.65,712.59
12.66,750.42
12.67,759.58
12.68,733.58
12.69,699.0
12.7,647.12
12.71,731.89
12.72,655.11
12.73,721.31
12.74,711.91
12.75,750.79
12.76,700.55
12.77,688.86
12.78,715.96
12.79,706.87
12.8,696.69
12.81,645.54
12.82,725.25
12.83,703.6
12.84,696.26
12.85,770.59
12.86,659.84
12.87,723.62
12.88,713.21
12.89,639.04
12.9,721.47
12.91,731.82
12.92,738.72
12.93,700.3
12.94,739.67
12.95,672.2
12.96,685.64
12.97,701.14
12.98,727.44
12.99,721.22
13.0,675.69
13.01,714.27
13.02,701.82
13.03,694.01
13.04,753.29
13.05,730.22
13.06,755.23
13.07,720.52
13.08,677.21
13.09,717.36
13.1,705.14
13.11,754.78
13.12,726.8
13.13,710.02
13.14,702.72
13.15,694.05
13.16,740.11
13.17,662.09
13.18,706.81
13.19,709.57
13.2,719.98
13.21,736.29
13.22,636.85
13.23,731.54
13.24,743.76
13.25,707.58
13.26,687.63
13.27,734.38
13.28,732.77
13.29,721.78
13.3,701.82
13.31,716.61
13.32,732.87
13.33,695.73
13.34,731.2
13.35,670.69
13.36,724.12
13.37,708.12
13.38,690.95
13.39,732.2
13.4,749.36
13.41,718.84
13.42,680.68
13.43,706.83
13.44,700.79
13.45,719.64
13.46,752.71
13.47,711.63
13.48,761.15
13.49,677.79
13.5,729.0
13.51,709.2
13.52,739.64
13.53,689.48
13.54,764.25
13.55,720.06
13.56,669.05
13.57,708.23
13.58,715.54
13.59,679.92
13.6,721.52
13.61,696.35
13.62,716.04
13.63,694.66
13.64,724.94
13.65,753.43
13.66,717.14
13.67,662.12
13.68,781.76
13.69,715.82
13.7,694.73
13.71,733.54
13.72,710.56
13.73,691.1
13.74,766.46
13.75,722.05
13.76,741.63
13.77,697.2
13.78,697.64
13.79,750.85
13.8,681.85
13.81,716.04
13.82,733.17
13.83,730.6
13.84,739.15
13.85,703.92
13.86,711.94
13.87,705.39
13.88,688.73
13.89,714.51
13.9,755.8
13.91,679.32
13.92,758.17
13.93,706.4
13.94,657.2
13.95,722.26
13.96,747.21
13.97,692.42
13.98,708.7
13.99,737.9
14.0,700.16
14.01,732.21
14.02,715.54
14.03,725.09
14.04,711.57
14.05,742.31
14.06,707.08
14.07,710.11
14.08,710.36
14.09,698.74
14.1,712.69
14.11,705.05
14.12,763.3
14.13,673.33
14.14,711.66
14.15,715.96
14.16,768.49
14.17,705.6
14.18,719.5
14.19,643.95
14.2,720.6
14.21,735.92
14.22,687.0
14.23,735.23
14.24,715.34
14.25,730.16
14.26,704.34
14.27,721.56
14.28,725.39
14.29,738.81
14.3,688.29
14.31,706.36
14.32,752.83
14.33,772.54
14.34,679.58
14.35,749.09
14.36,784.15
14.37,739.48
14.38,718.83
14.39,659.01
14.4,752.12
14.41,714.38
14.42,688.89
14.43,779.44
14.44,690.12
14.45,743.41
14.46,714.99
14.47,739.34
14.48,682.68
14.49,734.41
14.5,771.01
14.51,670.59
14.52,762.47
14.53,693.15
14.54,733.01
14.55,692.64
14.56,728.42
14.57,765.37
14.58,699.99
14.59,749.15
14.6,757.49
14.61,656.25
14.62,733.16
14.63,756.31
14.64,796.9
14.65,681.46
14.66,750.99
14.67,748.48
14.68,750.51
14.69,695.39
14.7,766.16
14.71,728.86
14.72,702.96
14.73,656.95
14.74,748.65
14.75,722.66
14.76,658.23
14.77,762.2
14.78,714.88
14.79,659.66
14.8,698.26
14.81,744.62
14.82,733.17
14.83,709.84
14.84,703.93
14.85,684.36
14.86,711.92
14.87,762.91
14.88,715.24
14.89,722.93
14.9,710.43
14.91,714.93
14.92,735.32
14.93,621.53
14.94,757.17
14.95,722.18
14.96,634.92
14.97,755.8
14.98,645.62
14.99,740.08
15.0,701.8
15.01,752.51
15.02,733.65
15.03,682.18
15.04,775.99
15.05,718.62
15.06,715.93
15.07,705.61
15.08,660.66
15.09,720.01
15.1,761.02
15.11,732.89
15.12,729.58
15.13,737.35
15.14,746.28
15.15,668.41
15.16,765.49
15.17,720.67
15.18,732.57
15.19,719.0
15.2,718.18
15.21,738.79
15.22,715.99
15.23,740.28
15.24,809.78
15.25,694.7
15.26,692.36
15.27,808.47
15.28,700.63
15.29,727.49
15.3,708.87
15.31,698.42
15.32,704.42
15.33,739.08
15.34,714.88
15.35,775.7
15.36,752.38
15.37,708.62
15.38,764.62
15.39,731.86
15.4,696.48
15.41,759.12
15.42,708.67
15.43,716.82
15.44,768.0
15.45,719.28
15.46,723.6
15.47,686.65
15.48,718.49
15.49,743.12
15.5,759.25
15.51,714.25
15.52,710.29
15.53,698.52
15.54,781.57
15.55,656.72
15.56,715.44
15.57,706.32
15.58,726.03
15.59,685.16
15.6,717.38
15.61,706.72
15.62,736.27
15.63,682.33
15.64,751.93
15.65,683.18
15.66,695.44
15.67,721.32
15.68,724.7
15.69,732.0
15.7,718.14
15.71,727.26
15.72,729.42
15.73,734.92
15.74,698.77
15.75,707.6
15.76,765.53
15.77,687.24
15.78,668.47
15.79,738.29
15.8,716.01
15.81,642.43
15.82,734.35
15.83,715.03
15.84,684.1
15.85,734.77
15.86,663.88
15.87,743.02
15.88,698.38
15.89,682.27
15.9,733.41
15.91,712.24
15.92,711.65
15.93,727.7
15.94,697.81
15.95,741.86
15.96,700.4
15.97,714.49
15.98,776.33
15.99,699.52
16.0,685.02
16.01,712.88
16.02,689.12
16.03,752.15
16.04,696.07
16.05,745.96
16.06,758.12
16.07,673.24
16.08,727.17
16.09,771.6
16.1,679.27
16.11,737.77
16.12,760.01
16.13,707.63
16.14,694.02
16.15,698.07
16.16,704.85
16.17,726.7
16.18,722.81
16.19,678.52
16.2,785.57
16.21,705.79
16.22,682.86
16.23,724.99
16.24,722.59
16.25,703.31
16.26,746.61
16.27,707.32
16.28,714.11
16.29,740.0
16.3,719.09
16.31,752.9
16.32,699.68
16.33,734.05
16.34,724.03
16.35,727.35
16.36,686.1
16.37,691.03
16.38,713.36
16.39,717.31
16.4,654.51
16.41,720.92
16.42,710.04
16.43,749.4
16.44,738.07
16.45,705.2
16.46,680.62
16.47,709.36
16.48,755.29
16.49,692.55
16.5,668.13
16.51,750.26
16.52,722.15
16.53,702.64
16.54,746.43
16.55,710.95
16.56,722.98
16.57,719.05
16.58,728.68
16.59,697.0
16.6,739.51
16.61,726.43
16.62,684.6
16.63,755.29
16.64,722.24
16.65,709.29
16.66,740.78
16.67,718.2
16.68,733.32
16.69,671.99
16.7,717.59
16.71,736.29
16.72,681.82
16.73,738.98
16.74,730.02
16.75,686.08
16.76,751.73
16.77,705.65
16.78,734.31
16.79,706.14
16.8,690.0
16.81,735.28
16.82,728.5
16.83,694.83
16.84,735.84
16.85,705.34
16.86,741.38
16.87,730.93
16.88,718.82
16.89,720.84
16.9,729.85
16.91,723.39
16.92,674.96
16.93,711.22
16.94,745.77
16.95,722.96
16.96,711.35
16.97,711.47
16.98,739.84
16.99,720.97
17.0,743.85
17.01,693.01
17.02,763.03
17.03,709.61
17.04,673.8
17.05,755.39
17.06,740.77
17.07,731.31
17.08,730.68
17.09,679.1
17.1,738.11
17.11,680.77
17.12,763.39
17.13,707.52
17.14,692.17
17.15,701.42
17.16,685.17
17.17,727.34
17.18,724.74
17.19,695.17
17.2,692.74
17.21,756.66
17.22,741.4
17.23,704.77
17.24,757.75
17.25,713.59
17.26,736.25
17.27,694.58
17.28,748.06
17.29,727.07
17.3,730.16
17.31,703.48
17.32,726.78
17.33,720.06
17.34,722.3
17.35,705.51
17.36,720.66
17.37,706.12
17.38,695.39
17.39,729.08
17.4,740.71
17.41,706.55
17.42,705.61
17.43,736.47
17.44,712.47
17.45,747.41
17.46,762.28
17.47,685.12
17.48,762.62
17.49,766.18
17.5,699.99
17.51,650.34
17.52,743.17
17.53,750.02
17.54,683.62
17.55,730.96
17.56,699.71
17.57,745.41
17.58,711.28
17.59,729.6
17.6,725.28
17.61,713.44
17.62,701.13
17.63,717.33
17.64,716.62
17.65,741.79
17.66,674.01
17.67,706.97
17.68,775.98
17.69,674.49
17.7,670.17
17.71,749.39
17.72,724.02
17.73,717.59
17.74,704.16
17.75,707.94
17.76,693.45
17.77,738.81
17.78,758.68
17.79,662.95
17.8,724.81
17.81,728.03
17.82,760.97
17.83,725.18
17.84,737.06
17.85,761.22
17.86,691.93
17.87,705.69
17.88,697.69
17.89,816.45
17.9,673.11
17.91,739.44
17.92,761.5
17.93,694.51
17.94,732.43
17.95,649.5
17.96,709.78
17.97,700.98
17.98,685.8
17.99,665.29
18.0,731.56
18.01,683.09
18.02,793.24
18.03,708.0
18.04,786.95
18.05,708.23
18.06,720.51
18.07,741.88
18.08,726.15
18.09,689.63
18.1,763.25
18.11,757.4
18.12,681.54
18.13,741.25
18.14,740.24
18.15,735.08
18.16,752.94
18.17,731.05
18.18,745.65
18.19,769.89
18.2,706.84
18.21,764.37
18.22,711.06
18.23,769.33
18.24,750.58
18.25,665.3
18.26,748.35
18.27,709.52
18.28,733.73
18.29,690.59
18.3,742.87
18.31,668.87
18.32,788.54
18.33,702.54
18.34,706.81
18.35,747.54
18.36,775.99
18.37,712.65
18.38,713.7
18.39,742.34
18.4,698.2
18.41,739.89
18.42,755.32
18.43,753.42
18.44,719.08
18.45,703.9
18.46,655.16
18.47,717.57
18.48,714.05
18.49,716.64
18.5,710.35
18.51,659.52
18.52,783.85
18.53,682.93
18.54,733.47
18.55,701.04
18.56,703.73
18.57,732.62
18.58,704.25
18.59,722.86
18.6,719.68
18.61,723.07
18.62,777.85
18.63,694.07
18.64,697.06
18.65,763.42
18.66,697.42
18.67,751.17
18.68,704.81
18.69,714.48
18.7,731.26
18.71,656.83
18.72,730.47
18.73,725.04
18.74,715.21
18.75,729.5
18.76,703.02
18.77,673.61
18.78,738.75
18.79,712.16
18.8,715.16
18.81,706.71
18.82,704.52
18.83,706.93
18.84,710.15
18.85,706.16
18.86,703.9
18.87,718.99
18.88,773.61
18.89,699.76
18.9,723.22
18.91,731.36
18.92,738.13
18.93,721.28
18.94,720.39
18.95,682.82
18.96,761.33
18.97,767.29
18.98,719.02
18.99,656.54
19.0,734.97
19.01,717.93
19.02,746.0
19.03,684.12
19.04,780.04
19.05,704.87
19.06,708.3
19.07,742.42
19.08,692.04
19.09,757.46
19.1,702.53
19.11,704.6
19.12,691.98
19.13,710.98
19.14,712.22
19.15,750.2
19.16,718.48
19.17,718.58
19.18,730.33
19.19,710.02
19.2,678.87
19.21,771.45
19.22,723.53
19.23,721.04
19.24,686.06
19.25,756.85
19.26,712.12
19.27,738.69
19.28,692.27
19.29,738.85
19.3,675.17
19.31,769.07
19.32,711.94
19.33,712.83
19.34,698.85
19.35,710.95
19.36,717.08
19.37,676.12
19.38,706.61
19.39,717.42
19.4,712.94
19.41,712.55
19.42,706.59
19.43,711.0
19.44,689.18
19.45,713.77
19.46,752.42
19.47,700.44
19.48,734.3
19.49,710.6
19.5,730.12
19.51,719.53
19.52,735.88
19.53,728.56
19.54,748.95
19.55,683.24
19.56,720.83
19.57,731.85
19.58,686.7
19.59,729.83
19.6,754.84
19.61,690.61
19.62,741.43
19.63,711.01
19.64,711.41
19.65,730.15
19.66,683.34
19.67,720.29
19.68,728.97
19.69,700.55
19.7,761.2
19.71,679.88
19.72,748.14
19.73,696.85
19.74,672.88
19.75,715.68
19.76,752.55
19.77,681.56
19.78,724.87
19.79,685.85
19.8,737.53
19.81,689.29
19.82,740.27
19.83,723.03
19.84,716.0
19.85,676.86
19.86,739.51
19.87,722.58
19.88,689.4
19.89,708.72
19.9,694.3
19.91,736.74
19.92,702.18
19.93,720.1
19.94,704.71
19.95,709.07
19.96,705.35
19.97,693.72
19.98,710.2
19.99,708.86
20.0,743.79
20.01,719.03
20.02,697.13
20.03,737.13
20.04,710.96
20.05,758.56
20.06,681.54
20.07,745.83
20.08,725.18
20.09,676.0
20.1,737.51
20.11,710.54
20.12,766.95
20.13,743.71
20.14,737.22
20.15,709.32
20.16,726.99
20.17,709.96
20.18,749.33
20.19,716.41
20.2,732.75
20.21,716.68
20.22,712.0
20.23,686.45
20.24,768.54
20.25,662.66
20.26,727.31
20.27,719.53
20.28,657.94
20.29,720.71
20.3,759.53
20.31,773.38
20.32,688.77
20.33,741.47
20.34,732.32
20.35,707.07
20.36,749.64
20.37,722.93
20.38,770.33
20.39,670.75
20.4,730.62
20.41,739.69
20.42,699.02
20.43,704.17
20.44,774.67
20.45,716.82
20.46,712.53
20.47,764.54
20.48,764.71
20.49,735.58
20.5,718.88
20.51,687.98
20.52,763.81
20.53,681.58
20.54,727.59
20.55,707.2
20.56,683.09
20.57,693.97
20.58,724.89
20.59,673.63
20.6,729.28
20.61,714.73
20.62,736.03
20.63,772.68
20.64,667.84
20.65,763.4
20.66,723.22
20.67,739.34
20.68,712.43
20.69,724.27
20.7,730.89
20.71,711.62
20.72,738.57
20.73,739.0
20.74,715.55
20.75,711.09
20.76,732.33
20.77,753.11
20.78,730.77
20.79,724.96
20.8,705.17
20.81,764.82
20.82,667.03
20.83,792.26
20.84,732.23
20.85,655.24
20.86,760.04
20.87,723.48
20.88,702.26
20.89,797.57
20.9,712.46
20.91,701.89
20.92,669.79
20.93,711.26
20.94,820.1
20.95,676.28
20.96,834.17
20.97,729.75
20.98,687.65
20.99,771.3
21.0,696.7
21.01,679.18
21.02,752.14
21.03,731.17
21.04,724.32
21.05,733.65
21.06,682.27
21.07,757.58
21.08,742.93
21.09,695.88
21.1,792.13
21.11,696.72
21.12,715.86
21.13,711.98
21.14,759.32
21.15,690.08
21.16,771.65
21.17,691.82
21.18,700.06
21.19,747.56
21.2,713.22
21.21,720.61
21.22,772.65
21.23,683.6
21.24,767.7
21.25,723.44
21.26,678.36
21.27,808.75
21.28,661.56
21.29,760.95
21.3,747.77
21.31,709.56
21.32,726.71
21.33,681.04
21.34,689.73
21.35,766.34
21.36,740.37
21.37,682.13
21.38,761.04
21.39,692.2
21.4,670.25
21.41,710.69
21.42,750.26
21.43,703.92
21.44,721.57
21.45,704.1
21.46,701.0
21.47,705.31
21.48,702.14
21.49,758.5
21.5,693.32
21.51,720.98
21.52,677.17
21.53,721.43
21.54,679.66
21.55,744.97
21.56,724.91
21.57,719.29
21.58,718.59
21.59,734.24
21.6,710.83
21.61,723.04
21.62,707.85
21.63,745.18
21.64,688.21
21.65,750.76
21.66,679.48
21.67,760.24
21.68,713.01
21.69,707.52
21.7,735.26
21.71,710.71
21.72,714.29
21.73,696.03
21.74,724.07
21.75,777.24
21.76,698.92
21.77,755.24
21.78,749.92
21.79,680.52
21.8,727.99
21.81,688.52
21.82,766.11
21.83,702.39
21.84,692.5
21.85,705.57
21.86,722.98
21.87,672.94
21.88,706.41
21.89,739.91
21.9,696.87
21.91,728.24
21.92,723.56
21.93,678.0
21.94,713.68
21.95,753.71
21.96,716.27
21.97,659.74
21.98,723.51
21.99,695.23
22.0,699.58
22.01,697.48
22.02,729.68
22.03,699.93
22.04,682.17
22.05,739.57
22.06,708.3
22.07,694.59
22.08,769.8
22.09,730.69
22.1,698.87
22.11,727.49
22.12,685.36
22.13,774.09
22.14,736.1
22.15,670.49
22.16,703.91
22.17,767.31
22.18,697.42
22.19,772.04
22.2,723.16
22.21,705.14
22.22,734.67
22.23,737.89
22.24,733.82
22.25,742.76
22.26,721.4
22.27,705.39
22.28,714.29
22.29,697.92
22.3,722.24
22.31,711.66
22.32,725.76
22.33,694.72
22.34,716.91
22.35,707.68
22.36,713.68
22.37,717.54
22.38,695.6
22.39,760.28
22.4,729.22
22.41,688.53
22.42,732.91
22.43,717.28
22.44,735.16
22.45,701.54
22.46,752.99
22.47,717.39
22.48,746.67
22.49,735.5
22.5,704.46
22.51,699.87
22.52,744.38
22.53,669.09
22.54,749.5
22.55,691.35
22.56,735.91
22.57,710.24
22.58,758.34
22.59,683.78
22.6,720.06
22.61,728.39
22.62,769.34
22.63,711.95
22.64,681.02
22.65,696.21
22.66,733.05
22.67,715.01
22.68,732.65
22.69,685.08
22.7,759.99
22.71,681.44
22.72,699.46
22.73,699.13
22.74,735.18
22.75,719.75
22.76,723.19
22.77,737.11
22.78,706.55
22.79,694.14
22.8,742.0
22.81,740.29
22.82,698.88
22.83,699.21
22.84,700.15
22.85,722.06
22.86,738.64
22.87,669.44
22.88,752.33
22.89,693.04
22.9,738.66
22.91,693.49
22.92,684.14
22.93,710.24
22.94,720.54
22.95,684.97
22.96,743.98
22.97,705.82
22.98,670.81
22.99,742.4
23.0,728.56
23.01,726.4
23.02,723.24
23.03,734.83
23.04,720.63
23.05,714.18
23.06,743.99
23.07,739.98
23.08,684.19
23.09,733.64
23.1,740.78
23.11,698.47
23.12,692.89
23.13,738.84
23.14,703.96
23.15,667.04
23.16,755.74
23.17,705.61
23.18,690.84
23.19,745.12
23.2,772.12
23.21,710.36
23.22,702.21
23.23,756.34
23.24,658.56
23.25,715.43
23.26,699.72
23.27,719.45
23.28,720.52
23.29,724.15
23.3,704.55
23.31,698.69
23.32,714.66
23.33,745.85
23.34,722.12
23.35,675.0
23.36,731.0
23.37,695.58
23.38,734.47
23.39,710.01
23.4,742.08
23.41,728.55
23.42,695.09
23.43,731.95
23.44,720.9
23.45,714.89
23.46,692.89
23.47,708.5
23.48,734.97
23.49,725.39
23.5,727.22
23.51,725.64
23.52,731.58
23.53,736.51
23.54,713.0
23.55,712.28
23.56,713.8
23.57,695.11
23.58,722.37
23.59,733.88
23.6,711.95
23.61,742.81
23.62,720.4
23.63,744.04
23.64,712.17
23.65,716.38
23.66,746.25
23.67,735.33
23.68,740.96
23.69,741.86
23.7,723.33
23.71,745.45
23.72,709.84
23.73,684.12
23.74,754.03
23.75,705.55
23.76,678.41
23.77,813.04
23.78,702.81
23.79,670.69
23.8,728.56
23.81,697.5
23.82,668.28
23.83,734.81
23.84,699.24
23.85,767.31
23.86,678.79
23.87,762.22
23.88,709.32
23.89,679.48
23.9,740.41
23.91,653.6
23.92,735.08
23.93,761.91
23.94,690.48
23.95,732.72
23.96,702.31
23.97,720.15
23.98,735.8
23.99,709.72
24.0,715.69
24.01,764.57
24.02,689.07
24.03,722.41
24.04,762.84
24.05,712.29
24.06,747.11
24.07,752.23
24.08,710.01
24.09,744.41
24.1,744.54
24.11,745.87
24.12,676.94
24.13,783.23
24.14,722.86
24.15,728.22
24.16,707.97
24.17,712.43
24.18,714.26
24.19,745.9
24.2,742.17
24.21,710.2
24.22,744.0
24.23,694.99
24.24,738.57
24.25,719.96
24.26,668.59
24.27,774.51
24.28,697.65
24.29,722.68
24.3,737.11
24.31,708.26
24.32,749.74
24.33,654.51
24.34,750.58
24.35,669.37
24.36,740.71
24.37,700.75
24.38,699.88
24.39,708.36
24.4,735.89
24.41,745.11
24.42,671.63
24.43,710.46
24.44,745.04
24.45,710.56
24.46,684.0
24.47,722.74
24.48,703.75
24.49,733.23
24.5,700.66
24.51,671.14
24.52,725.85
24.53,685.47
24.54,741.76
24.55,708.85
24.56,679.15
24.57,671.57
24.58,748.42
24.59,718.25
24.6,716.72
24.61,745.04
24.62,740.63
24.63,725.56
24.64,699.1
24.65,690.29
24.66,703.25
24.67,804.0
24.68,701.67
24.69,733.68
24.7,673.04
24.71,759.02
24.72,689.86
24.73,695.88
24.74,696.33
24.75,720.11
24.76,731.26
24.77,729.95
24.78,724.6
24.79,714.55
24.8,729.08
24.81,674.51
24.82,697.74
24.83,716.88
24.84,750.78
24.85,739.57
24.86,708.42
24.87,676.12
24.88,715.73
24.89,718.0
24.9,750.07
24.91,691.19
24.92,686.76
24.93,709.62
24.94,741.36
24.95,705.62
24.96,700.18
24.97,697.6
24.98,803.22
24.99,689.92
25.0,744.98
25.01,711.27
25.02,717.44
25.03,740.02
25.04,686.9
25.05,717.04
25.06,728.53
25.07,675.1
25.08,740.09
25.09,750.55
25.1,683.92
25.11,726.38
25.12,688.71
25.13,718.02
25.14,754.01
25.15,685.18
25.16,726.98
25.17,733.84
25.18,726.06
25.19,707.32
25.2,728.48
25.21,714.07
25.22,693.93
25.23,696.62
25.24,740.86
25.25,651.08
25.26,757.07
25.27,701.38
25.28,679.42
25.29,736.9
25.3,709.97
25.31,743.35
25.32,692.66
25.33,712.4
25.34,676.72
25.35,730.37
25.36,686.7
25.37,697.36
25.38,720.08
25.39,740.7
25.4,699.9
25.41,733.66
25.42,729.87
25.43,683.69
25.44,683.22
25.45,817.4
25.46,677.21
25.47,693.34
25.48,815.17
25.49,663.71
25.5,752.12
25.51,699.82
25.52,710.58
25.53,709.47
25.54,692.47
25.55,702.87
25.56,757.13
25.57,713.91
25.58,706.59
25.59,658.43
25.6,718.66
25.61,719.54
25.62,663.71
25.63,747.03
25.64,707.34
25.65,722.72
25.66,687.99
25.67,688.47
25.68,676.39
25.69,746.82
25.7,707.34
25.71,722.33
25.72,690.79
25.73,745.2
25.74,705.91
25.75,737.05
25.76,756.99
25.77,677.86
25.78,779.73
25.79,712.09
25.8,724.51
25.81,701.35
25.82,680.31
25.83,730.14
25.84,739.32
25.85,702.87
25.86,716.84
25.87,679.12
25.88,750.61
25.89,734.95
25.9,721.07
25.91,715.91
25.92,757.12
25.93,700.09
25.94,721.1
25.95,768.49
25.96,691.6
25.97,822.43
25.98,691.62
25.99,697.56
26.0,788.45
26.01,637.86
26.02,736.67
26.03,697.86
26.04,734.51
26.05,654.82
26.06,757.19
26.07,729.31
26.08,673.73
26.09,710.27
26.1,703.06
26.11,784.07
26.12,670.8
26.13,688.2
26.14,742.29
26.15,680.08
26.16,741.04
26.17,738.57
26.18,702.1
26.19,665.32
26.2,792.47
26.21,684.54
26.22,723.86
26.23,658.82
26.24,744.16
26.25,729.88
26.26,683.65
26.27,715.12
26.28,787.77
26.29,666.63
26.3,722.19
26.31,697.55
26.32,696.43
26.33,757.84
26.34,691.16
26.35,757.7
26.36,730.43
26.37,707.68
26.38,707.92
26.39,706.6
26.4,720.14
26.41,670.33
26.42,794.17
26.43,675.38
26.44,706.16
26.45,769.31
26.46,723.2
26.47,762.25
26.48,700.87
26.49,689.02
26.5,781.97
26.51,676.18
26.52,725.69
26.53,713.66
26.54,756.93
26.55,678.86
26.56,743.83
26.57,717.74
26.58,707.95
26.59,677.3
26.6,738.51
26.61,759.73
26.62,681.65
26.63,722.0
26.64,713.64
26.65,722.62
26.66,745.05
26.67,677.1
26.68,723.55
26.69,710.55
26.7,630.4
26.71,728.0
26.72,688.56
26.73,738.26
26.74,745.08
26.75,643.81
26.76,762.04
26.77,710.82
26.78,655.78
26.79,747.1
26.8,724.94
26.81,666.49
26.82,749.54
26.83,725.26
26.84,654.23
26.85,741.57
26.86,686.22
26.87,796.35
26.88,704.43
26.89,688.72
26.9,732.93
26.91,726.83
26.92,715.31
26.93,689.94
26.94,763.65
26.95,718.09
26.96,711.24
26.97,755.08
26.98,682.65
26.99,705.03
27.0,696.34
27.01,760.07
27.02,697.97
27.03,793.08
27.04,694.57
27.05,744.65
27.06,741.07
27.07,672.9
27.08,730.17
27.09,738.85
27.1,712.82
27.11,709.11
27.12,761.74
27.13,740.99
27.14,781.39
27.15,756.15
27.16,707.9
27.17,772.88
27.18,713.84
27.19,742.52
27.2,639.94
27.21,721.73
27.22,710.17
27.23,741.32
27.24,746.3
27.25,706.0
27.26,698.13
27.27,686.73
27.28,683.89
27.29,746.23
27.3,715.89
27.31,678.14
27.32,732.31
27.33,738.53
27.34,654.76
27.35,716.08
27.36,731.79
27.37,618.84
27.38,720.99
27.39,707.54
27.4,727.28
27.41,734.86
27.42,705.39
27.43,700.89
27.44,749.15
27.45,669.4
27.46,699.92
27.47,722.51
27.48,714.65
27.49,706.95
27.5,753.0
27.51,685.83
27.52,721.14
27.53,719.96
27.54,723.97
27.55,679.46
27.56,714.91
27.57,759.94
27.58,688.65
27.59,737.41
27.6,732.01
27.61,710.44
27.62,739.83
27.63,736.39
27.64,710.6
27.65,729.09
27.66,696.22
27.67,690.97
27.68,762.29
27.69,687.19
27.7,722.97
27.71,740.51
27.72,757.96
27.73,676.11
27.74,713.04
27.75,721.07
27.76,738.93
27.77,745.52
27.78,684.29
27.79,699.84
27.8,726.73
27.81,743.62
27.82,727.76
27.83,735.95
27.84,674.74
27.85,726.08
27.86,744.26
27.87,662.28
27.88,719.45
27.89,742.57
27.9,675.78
27.91,708.66
27.92,750.2
27.93,680.91
27.94,710.79
27.95,729.63
27.96,664.72
27.97,748.42
27.98,696.65
27.99,702.22
28.0,718.17
28.01,753.84
28.02,663.67
28.03,741.59
28.04,774.62
28.05,706.32
28.06,668.05
28.07,743.03
28.08,724.3
28.09,712.37
28.1,678.19
28.11,773.25
28.12,689.45
28.13,717.72
28.14,742.59
28.15,666.77
28.16,721.48
28.17,708.87
28.18,763.93
28.19,697.97
28.2,709.71
28.21,702.86
28.22,716.76
28.23,726.62
28.24,722.72
28.25,759.51
28.26,676.18
28.27,704.06
28.28,737.26
28.29,726.0
28.3,739.31
28.31,737.68
28.32,663.53
28.33,724.72
28.34,733.74
28.35,702.03
28.36,699.77
28.37,764.67
28.38,691.7
28.39,717.32
28.4,686.13
28.41,674.02
28.42,739.97
28.43,715.88
28.44,755.19
28.45,706.3
28.46,722.66
28.47,714.53
28.48,738.35
28.49,732.37
28.5,730.29
28.51,689.48
28.52,721.5
28.53,738.05
28.54,732.42
28.55,737.17
28.56,693.22
28.57,714.56
28.58,728.89
28.59,668.42
28.6,719.56
28.61,744.74
28.62,710.61
28.63,739.11
28.64,727.69
28.65,731.55
28.66,752.86
28.67,680.88
28.68,724.29
28.69,734.73
28.7,732.74
28.71,680.54
28.72,713.78
28.73,746.17
28.74,679.54
28.75,691.1
28.76,660.42
28.77,746.58
28.78,670.67
28.79,729.45
28.8,728.53
28.81,768.25
28.82,696.42
28.83,745.32
28.84,724.39
28.85,716.14
28.86,740.43
28.87,714.9
28.88,757.97
28.89,743.24
28.9,730.7
28.91,727.78
28.92,720.15
28.93,704.78
28.94,763.46
28.95,756.6
28.96,715.29
28.97,710.63
28.98,763.85
28.99,727.48
29.0,735.27
29.01,694.02
29.02,712.74
29.03,774.33
29.04,707.22
29.05,771.75
29.06,731.25
29.07,709.6
29.08,709.23
29.09,696.88
29.1,753.54
29.11,734.56
29.12,769.09
29.13,706.24
29.14,702.69
29.15,705.64
29.16,703.27
29.17,724.15
29.18,766.61
29.19,700.1
29.2,752.76
29.21,708.49
29.22,745.77
29.23,665.95
29.24,763.71
29.25,707.9
29.26,641.35
29.27,738.46
29.28,741.52
29.29,709.52
29.3,752.68
29.31,671.11
29.32,729.96
29.33,745.67
29.34,693.08
29.35,755.78
29.36,725.73
29.37,658.4
29.38,662.43
29.39,761.36
29.4,654.1
29.41,700.88
29.42,680.8
29.43,746.43
29.44,655.93
29.45,714.79
29.46,724.05
29.47,705.11
29.48,650.19
29.49,734.47
29.5,711.13
29.51,770.24
29.52,711.21
29.53,722.87
29.54,721.97
29.55,748.48
29.56,747.3
29.57,668.27
29.58,721.69
29.59,697.47
29.6,692.66
29.61,744.37
29.62,746.95
29.63,750.99
29.64,661.24
29.65,732.59
29.66,758.27
29.67,743.21
29.68,740.23
29.69,686.93
29.7,710.13
29.71,777.57
29.72,730.94
29.73,701.33
29.74,758.26
29.75,669.79
29.76,774.66
29.77,680.04
29.78,716.57
29.79,756.47
29.8,741.37
29.81,719.46
29.82,752.92
29.83,686.09
29.84,698.74
29.85,776.19
29.86,706.18
29.87,780.12
29.88,738.01
29.89,701.11
29.9,755.83
29.91,716.01
29.92,725.25
29.93,752.42
29.94,698.77
29.95,695.28
29.96,742.48
29.97,720.8
29.98,706.42
29.99,763.8
30.0,732.0
30.01,727.95
30.02,729.56
30.03,741.73
30.04,742.02
30.05,743.98
30.06,755.71
30.07,743.19
30.08,719.51
30.09,672.74
30.1,720.21
30.11,722.02
30.12,671.26
30.13,733.59
30.14,707.85
30.15,762.66
30.16,745.55
30.17,713.44
30.18,734.96
30.19,716.47
30.2,749.09
30.21,743.23
30.22,686.45
30.23,693.21
30.24,772.16
30.25,682.32
30.26,731.99
30.27,702.98
30.28,699.12
30.29,733.27
30.3,740.3
30.31,695.17
30.32,672.12
30.33,725.25
30.34,698.64
30.35,705.43
30.36,701.79
30.37,753.63
30.38,682.59
30.39,689.57
30.4,759.83
30.41,712.28
30.42,683.83
30.43,714.38
30.44,691.98
30.45,733.51
30.46,729.78
30.47,682.57
30.48,761.45
30.49,732.23
30.5,694.3
30.51,745.4
30.52,683.69
30.53,736.01
30.54,756.46
30.55,693.62
30.56,698.11
30.57,771.48
30.58,725.0
30.59,723.01
30.6,748.32
30.61,705.84
30.62,705.51
30.63,714.38
30.64,760.44
30.65,691.03
30.66,713.18
30.67,730.33
30.68,721.12
30.69,694.02
30.7,741.94
30.71,745.38
30.72,726.24
30.73,703.1
30.74,743.09
30.75,740.24
30.76,689.43
30.77,703.06
30.78,676.32
30.79,790.59
30.8,677.21
30.81,706.37
30.82,722.41
30.83,713.36
30.84,716.89
30.85,709.4
30.86,728.03
30.87,750.86
30.88,701.37
30.89,675.61
30.9,737.5
30.91,708.6
30.92,750.63
30.93,730.62
30.94,687.26
30.95,758.89
30.96,716.0
30.97,679.86
30.98,730.89
30.99,730.8
31.0,729.87
31.01,675.97
31.02,769.33
31.03,695.9
31.04,687.04
31.05,763.79
31.06,686.05
31.07,716.45
31.08,730.68
31.09,710.13
31.1,705.56
31.11,744.32
31.12,685.32
31.13,783.87
31.14,704.75
31.15,705.57
31.16,687.59
31.17,704.82
31.18,710.38
31.19,713.64
31.2,713.89
31.21,667.74
31.22,750.47
31.23,721.09
31.24,695.91
31.25,717.85
31.26,713.73
31.27,644.84
31.28,716.03
31.29,742.73
31.3,661.26
31.31,724.72
31.32,742.64
31.33,691.91
31.34,751.98
31.35,714.25
31.36,694.88
31.37,753.86
31.38,646.94
31.39,728.2
31.4,729.93
31.41,678.49
31.42,754.16
31.43,722.06
31.44,713.94
31.45,720.17
31.46,688.18
31.47,739.92
31.48,708.69
31.49,718.72
31.5,730.29
31.51,742.08
31.52,694.12
31.53,736.65
31.54,717.74
31.55,766.84
31.56,730.92
31.57,716.53
31.58,696.44
31.59,728.54
31.6,713.63
31.61,711.6
31.62,726.48
31.63,696.44
31.64,779.22
31.65,720.17
31.66,708.08
31.67,757.82
31.68,704.46
31.69,714.76
31.7,701.84
31.71,756.27
31.72,728.57
31.73,766.36
31.74,707.14
31.75,708.68
31.76,754.77
31.77,701.61
31.78,739.85
31.79,763.68
31.8,686.0
31.81,791.37
31.82,742.21
31.83,753.93
31.84,724.89
31.85,712.09
31.86,688.31
31.87,758.4
31.88,714.77
31.89,679.16
31.9,767.27
31.91,667.76
31.92,742.88
31.93,723.32
31.94,705.33
31.95,746.44
31.96,734.87
31.97,709.39
31.98,702.66
31.99,749.46
32.0,739.41
32.01,736.32
32.02,728.43
32.03,701.72
32.04,721.27
32.05,720.67
32.06,759.74
32.07,744.36
32.08,695.0
32.09,726.7
32.1,723.24
32.11,726.54
32.12,705.81
32.13,739.73
32.14,712.86
32.15,662.33
32.16,721.83
32.17,699.28
32.18,692.04
32.19,744.15
32.2,660.8
32.21,714.99
32.22,735.59
32.23,718.25
32.24,669.6
32.25,751.9
32.26,694.84
32.27,730.59
32.28,693.83
32.29,715.17
32.3,738.89
32.31,724.09
32.32,702.6
32.33,731.6
32.34,691.42
32.35,727.66
32.36,731.28
32.37,755.69
32.38,682.2
32.39,721.21
32.4,735.62
32.41,689.44
32.42,690.9
32.43,701.26
32.44,723.03
32.45,723.05
32.46,728.29
32.47,731.14
32.48,668.98
32.49,701.64
32.5,714.67
32.51,827.87
32.52,708.73
32.53,697.96
32.54,743.69
32.55,713.55
32.56,722.88
32.57,727.77
32.58,710.4
32.59,709.86
32.6,713.14
32.61,709.39
32.62,744.87
32.63,742.29
32.64,662.53
32.65,792.9
32.66,763.81
32.67,657.33
32.68,749.9
32.69,704.2
32.7,716.08
32.71,736.44
32.72,715.49
32.73,761.76
32.74,734.7
32.75,717.9
32.76,734.58
32.77,724.85
32.78,743.36
32.79,657.87
32.8,762.61
32.81,749.81
32.82,674.65
32.83,742.59
32.84,660.74
32.85,745.7
32.86,756.71
32.87,651.16
32.88,724.13
32.89,720.25
32.9,724.37
32.91,730.74
32.92,740.14
32.93,712.82
32.94,725.15
32.95,695.27
32.96,768.17
32.97,720.92
32.98,704.24
32.99,711.58
33.0,708.8
33.01,739.26
33.02,733.1
33.03,712.77
33.04,727.27
33.05,691.43
33.06,722.19
33.07,732.03
33.08,698.64
33.09,741.14
33.1,673.57
33.11,705.63
33.12,708.22
33.13,709.11
33.14,737.65
33.15,742.06
33.16,687.76
33.17,722.8
33.18,716.74
33.19,699.39
33.2,718.73
33.21,713.19
33.22,748.89
33.23,712.95
33.24,673.38
33.25,702.55
33.26,702.66
33.27,737.17
33.28,757.9
33.29,724.11
33.3,696.87
33.31,706.29
33.32,658.4
33.33,704.44
33.34,744.55
33.35,682.6
33.36,704.36
33.37,745.54
33.38,707.99
33.39,705.38
33.4,742.24
33.41,714.38
33.42,667.14
33.43,714.17
33.44,787.74
33.45,705.1
33.46,669.82
33.47,719.64
33.48,753.42
33.49,769.09
33.5,680.06
33.51,729.43
33.52,699.63
33.53,717.02
33.54,717.46
33.55,713.55
33.56,718.1
33.57,706.73
33.58,763.71
33.59,723.38
33.6,763.4
33.61,719.39
33.62,714.08
33.63,741.38
33.64,707.66
33.65,699.79
33.66,781.6
33.67,690.58
33.68,719.97
33.69,705.87
33.7,674.29
33.71,731.57
33.72,693.98
33.73,718.19
33.74,752.42
33.75,716.04
33.76,662.43
33.77,802.9
33.78,722.6
33.79,702.78
33.8,673.81
33.81,711.85
33.82,706.57
33.83,778.79
33.84,713.51
33.85,695.34
33.86,715.12
33.87,716.13
33.88,703.36
33.89,733.37
33.9,704.29
33.91,766.94
33.92,720.43
33.93,678.76
33.94,764.04
33.95,701.56
33.96,688.0
33.97,703.02
33.98,765.89
33.99,669.54
34.0,758.25
34.01,710.33
34.02,770.68
34.03,730.66
34.04,707.7
34.05,714.64
34.06,733.65
34.07,715.44
34.08,702.51
34.09,746.39
34.1,703.06
34.11,728.96
34.12,699.35
34.13,739.03
34.14,701.68
34.15,710.57
34.16,687.6
34.17,707.89
34.18,731.06
34.19,699.67
34.2,673.36
34.21,715.38
34.22,727.83
34.23,721.02
34.24,697.7
34.25,692.1
34.26,687.83
34.27,729.44
34.28,706.08
34.29,730.89
34.3,697.45
34.31,698.54
34.32,701.16
34.33,738.67
34.34,734.84
34.35,696.19
34.36,707.29
34.37,750.0
34.38,692.59
34.39,734.85
34.4,743.0
34.41,721.79
34.42,749.04
34.43,712.76
34.44,719.72
34.45,725.95
34.46,674.68
34.47,779.71
34.48,689.2
34.49,728.44
34.5,756.01
34.51,763.95
34.52,667.19
34.53,754.22
34.54,740.53
34.55,729.44
34.56,690.57
34.57,691.34
34.58,732.59
34.59,698.4
34.6,712.32
34.61,775.14
34.62,725.06
34.63,673.97
34.64,796.15
34.65,725.15
34.66,696.79
34.67,761.67
34.68,748.89
34.69,673.71
34.7,762.27
34.71,767.82
34.72,713.38
34.73,748.67
34.74,734.64
34.75,720.89
34.76,737.03
34.77,741.6
34.78,713.71
34.79,759.44
34.8,679.25
34.81,758.66
34.82,759.45
34.83,686.61
34.84,773.27
34.85,704.37
34.86,781.2
34.87,672.37
34.88,775.05
34.89,741.32
34.9,685.0
34.91,742.08
34.92,732.78
34.93,699.4
34.94,755.28
34.95,745.67
34.96,733.43
34.97,683.39
34.98,675.14
34.99,747.81
35.0,685.22
35.01,709.78
35.02,763.85
35.03,728.79
35.04,755.02
35.05,752.05
35.06,700.21
35.07,711.45
35.08,709.44
35.09,675.85
35.1,723.16
35.11,753.78
35.12,628.66
35.13,730.99
35.14,728.93
35.15,634.53
35.16,748.73
35.17,746.65
35.18,635.66
35.19,727.06
35.2,651.97
35.21,753.92
35.22,721.31
35.23,660.8
35.24,725.0
35.25,714.83
35.26,712.39
35.27,721.66
35.28,694.98
35.29,727.63
35.3,724.84
35.31,748.97
35.32,695.45
35.33,716.2
35.34,695.82
35.35,673.54
35.36,721.16
35.37,725.69
35.38,708.32
35.39,767.81
35.4,669.34
35.41,740.12
35.42,735.25
35.43,676.21
35.44,729.86
35.45,632.02
35.46,745.34
35.47,769.71
35.48,647.83
35.49,746.86
35.5,738.19
35.51,664.25
35.52,761.34
35.53,693.89
35.54,761.6
35.55,699.55
35.56,722.28
35.57,658.45
35.58,750.88
35.59,763.76
35.6,677.44
35.61,771.99
35.62,673.57
35.63,789.1
35.64,703.87
35.65,718.21
35.66,737.14
35.67,704.76
35.68,725.67
35.69,751.13
35.7,719.93
35.71,678.85
35.72,766.29
35.73,722.34
35.74,723.6
35.75,742.3
35.76,694.4
35.77,676.17
35.78,793.68
35.79,759.39
35.8,724.3
35.81,713.7
35.82,712.09
35.83,761.23
35.84,744.85
35.85,667.17
35.86,753.77
35.87,764.9
35.88,721.32
35.89,758.71
35.9,731.56
35.91,710.71
35.92,667.9
35.93,733.0
35.94,701.78
35.95,749.97
35.96,711.09
35.97,706.03
35.98,715.08
35.99,699.16
36.0,692.9
36.01,739.38
36.02,686.87
36.03,722.32
36.04,761.25
36.05,750.26
36.06,719.78
36.07,700.12
36.08,712.37
36.09,753.3
36.1,702.26
36.11,741.28
36.12,759.04
36.13,706.96
36.14,726.59
36.15,743.88
36.16,707.65
36.17,723.46
36.18,730.96
36.19,725.33
36.2,752.66
36.21,735.47
36.22,680.26
36.23,751.42
36.24,669.46
36.25,726.14
36.26,695.84
36.27,728.22
36.28,737.97
36.29,727.04
36.3,714.67
36.31,735.17
36.32,714.1
36.33,708.89
36.34,676.67
36.35,727.34
36.36,736.54
36.37,680.58
36.38,764.41
36.39,704.78
36.4,713.27
36.41,706.75
36.42,690.61
36.43,732.94
36.44,674.32
36.45,742.26
36.46,733.66
36.47,696.34
36.48,705.52
36.49,709.65
36.5,670.52
36.51,776.41
36.52,649.26
36.53,747.21
36.54,698.08
36.55,732.29
36.56,730.12
36.57,667.84
36.58,729.76
36.59,695.47
36.6,714.09
36.61,704.33
36.62,681.7
36.63,707.67
36.64,755.43
36.65,706.38
36.66,739.05
36.67,657.36
36.68,734.2
36.69,749.56
36.7,682.52
36.71,705.78
36.72,690.82
36.73,712.41
36.74,709.2
36.75,710.07
36.76,714.72
36.77,723.96
36.78,719.71
36.79,706.47
36.8,712.74
36.81,727.4
36.82,686.17
36.83,707.93
36.84,699.62
36.85,663.37
36.86,739.56
36.87,689.42
36.88,729.86
36.89,731.15
36.9,693.06
36.91,659.85
36.92,728.35
36.93,724.94
36.94,740.87
36.95,676.99
36.96,761.7
36.97,755.82
36.98,721.81
36.99,726.35
37.0,673.31
37.01,697.79
37.02,759.87
37.03,713.45
37.04,728.75
37.05,680.35
37.06,724.88
37.07,738.28
37.08,721.37
37.09,749.22
37.1,703.97
37.11,703.58
37.12,763.65
37.13,666.25
37.14,692.41
37.15,726.45
37.16,736.48
37.17,707.63
37.18,723.05
37.19,698.77
37.2,698.21
37.21,733.56
37.22,710.75
37.23,739.64
37.24,695.81
37.25,744.05
37.26,683.7
37.27,711.2
37.28,722.38
37.29,727.62
37.3,695.7
37.31,699.52
37.32,722.66
37.33,709.89
37.34,715.52
37.35,764.54
37.36,741.69
37.37,711.21
37.38,720.15
37.39,689.09
37.4,720.63
37.41,716.06
37.42,721.39
37.43,741.44
37.44,706.03
37.45,719.1
37.46,736.31
37.47,701.36
37.48,744.21
37.49,702.65
37.5,683.97
37.51,745.4
37.52,664.68
37.53,742.37
37.54,738.33
37.55,712.76
37.56,706.78
37.57,682.15
37.58,748.36
37.59,729.92
37.6,741.63
37.61,716.55
37.62,744.78
37.63,695.53
37.64,719.09
37.65,769.08
37.66,662.05
37.67,719.24
37.68,727.15
37.69,694.62
37.7,748.99
37.71,717.04
37.72,731.22
37.73,707.58
37.74,738.42
37.75,743.49
37.76,717.56
37.77,783.09
37.78,765.26
37.79,696.0
37.8,705.01
37.81,711.75
37.82,731.66
37.83,668.42
37.84,680.45
37.85,720.83
37.86,746.69
37.87,718.77
37.88,715.56
37.89,738.67
37.9,738.13
37.91,727.76
37.92,706.72
37.93,704.67
37.94,782.12
37.95,743.5
37.96,731.31
37.97,707.8
37.98,706.54
37.99,740.23
38.0,716.54
38.01,764.41
38.02,711.73
38.03,740.11
38.04,720.92
38.05,731.05
38.06,647.79
38.07,741.46
38.08,740.99
38.09,691.4
38.1,735.4
38.11,709.76
38.12,764.86
38.13,661.56
38.14,745.37
38.15,727.24
38.16,713.14
38.17,758.2
38.18,679.25
38.19,719.27
38.2,723.94
38.21,653.86
38.22,772.34
38.23,674.4
38.24,730.19
38.25,753.38
38.26,710.34
38.27,731.18
38.28,738.07
38.29,733.05
38.3,696.1
38.31,751.12
38.32,743.72
38.33,726.63
38.34,696.98
38.35,716.48
38.36,700.72
38.37,726.29
38.38,727.58
38.39,733.22
38.4,737.08
38.41,739.82
38.42,828.96
38.43,702.3
38.44,752.64
38.45,727.06
38.46,701.45
38.47,797.1
38.48,693.34
38.49,710.95
38.5,674.58
38.51,721.16
38.52,733.09
38.53,766.08
38.54,701.53
38.55,739.82
38.56,689.71
38.57,714.04
38.58,761.21
38.59,706.93
38.6,746.81
38.61,695.87
38.62,709.34
38.63,710.31
38.64,734.49
38.65,697.81
38.66,737.1
38.67,688.14
38.68,759.78
38.69,711.05
38.7,739.98
38.71,718.04
38.72,719.98
38.73,709.34
38.74,697.11
38.75,845.85
38.76,697.17
38.77,726.35
38.78,701.75
38.79,720.51
38.8,706.04
38.81,667.13
38.82,682.74
38.83,718.6
38.84,740.82
38.85,733.77
38.86,693.53
38.87,685.79
38.88,672.22
38.89,737.19
38.9,715.46
38.91,711.88
38.92,674.78
38.93,715.47
38.94,740.57
38.95,687.85
38.96,735.05
38.97,690.51
38.98,774.28
38.99,708.59
39.0,710.84
39.01,680.93
39.02,671.33
39.03,778.75
39.04,677.81
39.05,735.37
39.06,773.73
39.07,688.45
39.08,719.63
39.09,641.99
39.1,721.67
39.11,727.49
39.12,692.41
39.13,732.47
39.14,715.89
39.15,748.75
39.16,707.46
39.17,733.7
39.18,749.52
39.19,670.1
39.2,730.63
39.21,726.08
39.22,744.66
39.23,710.31
39.24,733.05
39.25,673.65
39.26,758.43
39.27,672.84
39.28,711.31
39.29,713.06
39.3,731.07
39.31,709.94
39.32,707.3
39.33,755.37
39.34,753.13
39.35,688.7
39.36,711.8
39.37,710.93
39.38,739.84
39.39,708.6
39.4,718.26
39.41,711.07
39.42,671.36
39.43,714.08
39.44,733.66
39.45,695.92
39.46,769.53
39.47,696.59
39.48,717.45
39.49,753.21
39.5,731.51
39.51,648.8
39.52,753.0
39.53,681.08
39.54,709.61
39.55,751.78
39.56,730.57
39.57,711.23
39.58,714.31
39.59,738.27
39.6,713.16
39.61,708.64
39.62,736.95
39.63,725.19
39.64,754.06
39.65,621.78
39.66,749.15
39.67,724.02
39.68,730.02
39.69,704.44
39.7,696.61
39.71,733.98
39.72,728.06
39.73,729.25
39.74,699.27
39.75,726.08
39.76,696.13
39.77,719.62
39.78,729.46
39.79,726.79
39.8,684.78
39.81,726.25
39.82,769.7
39.83,699.73
39.84,698.95
39.85,751.95
39.86,656.15
39.87,760.17
39.88,716.06
39.89,713.49
39.9,735.89
39.91,717.82
39.92,694.26
39.93,720.09
39.94,698.81
39.95,734.85
39.96,776.43
39.97,716.84
39.98,729.33
39.99,694.6
40.0,725.34
40.01,694.11
40.02,735.7
40.03,700.57
40.04,731.46
40.05,748.38
40.06,703.45
40.07,711.05
40.08,750.92
40.09,681.17
40.1,727.26
40.11,729.36
40.12,746.23
40.13,731.25
40.14,726.87
40.15,666.25
40.16,770.86
40.17,700.53
40.18,708.93
40.19,682.16
40.2,701.22
40.21,728.92
40.22,725.26
40.23,715.89
40.24,624.72
40.25,717.49
40.26,714.98
40.27,771.28
40.28,693.44
40.29,738.46
40.3,652.71
40.31,698.37
40.32,707.53
40.33,704.39
40.34,750.12
40.35,695.16
40.36,689.62
40.37,742.35
40.38,630.43
40.39,735.25
40.4,714.88
40.41,749.69
40.42,682.65
40.43,711.58
40.44,678.22
40.45,738.97
40.46,740.21
40.47,662.23
40.48,687.69
40.49,738.9
40.5,715.55
40.51,740.43
40.52,759.05
40.53,757.82
40.54,709.35
40.55,783.65
40.56,693.98
40.57,704.1
40.58,753.59
40.59,755.98
40.6,726.11
40.61,734.99
40.62,689.1
40.63,779.31
40.64,749.17
40.65,696.96
40.66,777.98
40.67,722.47
40.68,728.03
40.69,795.23
40.7,708.39
40.71,692.67
40.72,726.74
40.73,731.86
40.74,713.53
40.75,705.48
40.76,718.66
40.77,714.89
40.78,743.58
40.79,751.9
40.8,701.18
40.81,720.71
40.82,731.46
40.83,707.06
40.84,722.23
40.85,731.75
40.86,811.51
40.87,670.95
40.88,755.14
40.89,686.75
40.9,726.81
40.91,690.57
40.92,689.11
40.93,715.15
40.94,764.8
40.95,726.46
40.96,715.22
40.97,753.01
40.98,765.55
40.99,708.42
41.0,760.08
41.01,733.34
41.02,710.3
41.03,746.88
41.04,737.44
41.05,692.15
41.06,673.44
41.07,719.62
41.08,774.02
41.09,743.98
41.1,692.96
41.11,697.67
41.12,673.21
41.13,743.75
41.14,710.93
41.15,671.19
41.16,734.17
41.17,663.67
41.18,724.11
41.19,737.07
41.2,671.41
41.21,703.54
41.22,749.79
41.23,624.79
41.24,719.24
41.25,669.16
41.26,723.41
41.27,715.87
41.28,724.38
41.29,723.69
41.3,778.11
41.31,743.76
41.32,740.18
41.33,762.62
41.34,708.78
41.35,700.32
41.36,734.83
41.37,739.0
41.38,709.05
41.39,713.34
41.4,737.04
41.41,678.08
41.42,756.55
41.43,693.25
41.44,710.32
41.45,775.62
41.46,702.11
41.47,693.05
41.48,707.88
41.49,735.15
41.5,730.04
41.51,753.92
41.52,702.42
41.53,779.85
41.54,713.55
41.55,737.66
41.56,774.02
41.57,693.88
41.58,720.22
41.59,777.9
41.6,657.04
41.61,732.25
41.62,709.92
41.63,719.75
41.64,762.55
41.65,758.68
41.66,685.84
41.67,758.92
41.68,682.47
41.69,718.99
41.7,768.76
41.71,671.63
41.72,732.15
41.73,772.75
41.74,684.16
41.75,722.5
41.76,727.31
41.77,709.99
41.78,717.52
41.79,720.11
41.8,698.33
41.81,695.69
41.82,730.7
41.83,699.92
41.84,708.35
41.85,733.09
41.86,705.08
41.87,741.61
41.88,711.81
41.89,734.36
41.9,612.82
41.91,736.25
41.92,717.66
41.93,639.61
41.94,766.37
41.95,667.58
41.96,678.12
41.97,768.2
41.98,687.64
41.99,690.13
42.0,719.06
42.01,675.59
42.02,721.56
42.03,718.61
42.04,696.36
42.05,707.17
42.06,746.16
42.07,665.69
42.08,722.88
42.09,672.92
42.1,711.1
42.11,718.38
42.12,697.57
42.13,707.23
42.14,725.28
42.15,725.49
42.16,729.81
42.17,706.81
42.18,653.62
42.19,695.29
42.2,693.52
42.21,693.34
42.22,759.98
42.23,683.76
42.24,706.74
42.25,739.34
42.26,708.89
42.27,732.4
42.28,713.76
42.29,722.2
42.3,691.15
42.31,707.86
42.32,687.18
42.33,739.97
42.34,723.02
42.35,733.77
42.36,704.6
42.37,694.06
42.38,707.24
42.39,744.2
42.4,664.1
42.41,732.36
42.42,700.3
42.43,689.03
42.44,711.16
42.45,723.48
42.46,684.38
42.47,763.65
42.48,704.99
42.49,683.26
42.5,687.54
42.51,707.1
42.52,729.64
42.53,655.66
42.54,743.92
42.55,750.97
42.56,710.0
42.57,698.16
42.58,694.25
42.59,730.86
42.6,693.88
42.61,695.07
42.62,709.89
42.63,745.78
42.64,706.59
42.65,689.65
42.66,732.36
42.67,707.29
42.68,720.9
42.69,666.83
42.7,725.32
42.71,723.12
42.72,722.78
42.73,714.94
42.74,721.56
42.75,706.42
42.76,655.71
42.77,723.62
42.78,700.15
42.79,726.48
42.8,693.64
42.81,678.91
42.82,690.4
42.83,715.5
42.84,713.65
42.85,681.89
42.86,721.78
42.87,718.43
42.88,729.68
42.89,655.35
42.9,731.08
42.91,668.29
42.92,737.51
42.93,709.08
42.94,704.6
42.95,706.35
42.96,699.77
42.97,721.26
42.98,763.11
42.99,704.43
43.0,731.93
43.01,692.37
43.02,746.45
43.03,725.22
43.04,689.04
43.05,723.2
43.06,724.27
43.07,714.17
43.08,674.03
43.09,717.73
43.1,694.98
43.11,672.87
43.12,725.92
43.13,700.6
43.14,673.88
43.15,769.32
43.16,671.83
43.17,702.85
43.18,758.15
43.19,653.37
43.2,728.28
43.21,715.42
43.22,741.99
43.23,677.59
43.24,723.51
43.25,700.9
43.26,671.77
43.27,699.03
43.28,710.47
43.29,739.96
43.3,701.07
43.31,720.76
43.32,695.92
43.33,759.22
43.34,690.59
43.35,702.12
43.36,720.69
43.37,734.14
43.38,754.32
43.39,721.7
43.4,731.6
43.41,776.8
43.42,687.94
43.43,732.45
43.44,702.42
43.45,721.23
43.46,727.76
43.47,699.18
43.48,741.79
43.49,739.38
43.5,741.39
43.51,699.2
43.52,710.24
43.53,767.47
43.54,681.37
43.55,738.59
43.56,763.05
43.57,723.64
43.58,726.14
43.59,721.05
43.6,727.66
43.61,683.59
43.62,756.69
43.63,743.6
43.64,699.13
43.65,696.68
43.66,764.09
43.67,688.56
43.68,706.96
43.69,761.83
43.7,694.59
43.71,685.49
43.72,789.37
43.73,677.79
43.74,664.76
43.75,789.61
43.76,690.97
43.77,732.94
43.78,716.03
43.79,712.13
43.8,718.01
43.81,701.27
43.82,759.64
43.83,697.98
43.84,729.31
43.85,654.44
43.86,727.44
43.87,709.65
43.88,711.4
43.89,747.43
43.9,750.57
43.91,717.8
43.92,747.62
43.93,716.03
43.94,733.64
43.95,696.82
43.96,760.7
43.97,725.63
43.98,755.02
43.99,681.26
44.0,736.31
44.01,682.52
44.02,729.78
44.03,721.63
44.04,718.51
44.05,662.0
44.06,744.4
44.07,733.37
44.08,699.4
44.09,693.44
44.1,730.0
44.11,699.2
44.12,668.47
44.13,741.78
44.14,698.23
44.15,690.53
44.16,649.17
44.17,722.32
44.18,767.85
44.19,688.2
44.2,741.03
44.21,702.36
44.22,659.9
44.23,764.31
44.24,752.07
44.25,672.43
44.26,724.66
44.27,755.77
44.28,741.15
44.29,696.54
44.3,715.5
44.31,680.7
44.32,761.42
44.33,680.61
44.34,716.83
44.35,727.72
44.36,710.87
44.37,672.59
44.38,735.59
44.39,695.04
44.4,744.71
44.41,740.48
44.42,735.03
44.43,723.89
44.44,710.75
44.45,766.06
44.46,708.67
44.47,732.54
44.48,717.39
44.49,718.07
44.5,721.02
44.51,732.63
44.52,776.05
44.53,707.76
44.54,720.74
44.55,743.75
44.56,699.95
44.57,758.36
44.58,727.58
44.59,690.19
44.6,717.83
44.61,818.54
44.62,701.83
44.63,729.83
44.64,774.67
44.65,687.88
44.66,757.18
44.67,686.4
44.68,685.66
44.69,759.75
44.7,708.36
44.71,714.57
44.72,688.6
44.73,739.42
44.74,705.23
44.75,699.18
44.76,679.24
44.77,730.86
44.78,707.46
44.79,724.05
44.8,652.02
44.81,733.38
44.82,689.03
44.83,693.23
44.84,750.61
44.85,697.47
44.86,657.45
44.87,739.1
44.88,699.24
44.89,722.7
44.9,723.71
44.91,666.69
44.92,717.88
44.93,716.92
44.94,675.3
44.95,728.0
44.96,730.76
44.97,688.4
44.98,742.18
44.99,688.53
45.0,737.53
45.01,688.73
45.02,728.79
45.03,704.92
45.04,745.71
45.05,711.93
45.06,713.56
45.07,731.84
45.08,707.67
45.09,724.74
45.1,734.63
45.11,660.86
45.12,730.62
45.13,718.72
45.14,691.95
45.15,750.89
45.16,720.74
45.17,698.89
45.18,730.63
45.19,704.68
45.2,732.81
45.21,724.65
45.22,719.66
45.23,703.61
45.24,708.46
45.25,710.45
45.26,700.36
45.27,736.06
45.28,684.35
45.29,717.25
45.3,752.1
45.31,713.03
45.32,728.36
45.33,668.76
45.34,708.28
45.35,726.28
45.36,731.93
45.37,704.1
45.38,714.22
45.39,707.95
45.4,710.45
45.41,720.59
45.42,692.28
45.43,745.78
45.44,697.71
45.45,685.16
45.46,733.83
45.47,658.17
45.48,691.9
45.49,735.23
45.5,685.14
45.51,710.47
45.52,697.53
45.53,734.37
45.54,680.33
45.55,737.57
45.56,668.87
45.57,721.82
45.58,708.3
45.59,709.18
45.6,720.31
45.61,673.74
45.62,700.11
45.63,738.33
45.64,746.92
45.65,744.37
45.66,674.81
45.67,773.97
45.68,696.56
45.69,718.01
45.7,711.47
45.71,709.89
45.72,779.36
45.73,677.53
45.74,747.04
45.75,731.44
45.76,658.27
45.77,764.94
45.78,723.61
45.79,666.14
45.8,736.85
45.81,703.51
45.82,685.35
45.83,711.25
45.84,729.47
45.85,719.94
45.86,666.7
45.87,726.91
45.88,734.05
45.89,675.08
45.9,742.75
45.91,739.93
45.92,682.46
45.93,717.18
45.94,719.9
45.95,719.03
45.96,745.0
45.97,705.06
45.98,753.92
45.99,680.35
46.0,711.75
46.01,706.99
46.02,738.22
46.03,687.66
46.04,746.58
46.05,700.14
46.06,748.33
46.07,674.82
46.08,710.36
46.09,760.08
46.1,775.72
46.11,639.36
46.12,813.66
46.13,724.12
46.14,655.58
46.15,727.95
46.16,731.82
46.17,742.5
46.18,724.97
46.19,705.23
46.2,697.14
46.21,703.85
46.22,702.49
46.23,743.05
46.24,688.7
46.25,726.16
46.26,725.26
46.27,678.07
46.28,748.67
46.29,674.62
46.3,727.68
46.31,742.63
46.32,756.38
46.33,729.6
46.34,699.05
46.35,739.33
46.36,716.81
46.37,736.65
46.38,762.16
46.39,714.72
46.4,716.05
46.41,787.24
46.42,684.1
46.43,724.71
46.44,760.7
46.45,699.57
46.46,676.67
46.47,754.66
46.48,761.81
46.49,736.99
46.5,717.83
46.51,713.24
46.52,773.38
46.53,681.97
46.54,755.28
46.55,717.16
46.56,691.2
46.57,640.44
46.58,751.3
46.59,719.67
46.6,718.89
46.61,729.28
46.62,717.92
46.63,727.82
46.64,773.32
46.65,663.6
46.66,771.06
46.67,737.55
46.68,649.81
46.69,779.09
46.7,704.76
46.71,721.31
46.72,770.59
46.73,662.54
46.74,706.34
46.75,747.54
46.76,631.98
46.77,751.52
46.78,706.44
46.79,649.1
46.8,753.65
46.81,672.14
46.82,732.58
46.83,725.29
46.84,752.54
46.85,623.07
46.86,764.16
46.87,705.47
46.88,731.72
46.89,723.73
46.9,731.17
46.91,713.21
46.92,701.95
46.93,736.79
46.94,682.71
46.95,716.4
46.96,787.45
46.97,678.85
46.98,723.24
46.99,744.96
47.0,726.41
47.01,716.46
47.02,747.64
47.03,721.8
47.04,713.49
47.05,723.3
47.06,742.67
47.07,657.74
47.08,711.18
47.09,715.05
47.1,707.65
47.11,717.89
47.12,756.44
47.13,675.57
47.14,686.93
47.15,704.18
47.16,764.36
47.17,704.14
47.18,746.3
47.19,721.09
47.2,768.8
47.21,653.25
47.22,753.38
47.23,738.01
47.24,678.15
47.25,770.0
47.26,689.05
47.27,703.63
47.28,746.78
47.29,714.69
47.3,800.75
47.31,722.8
47.32,684.66
47.33,790.97
47.34,716.99
47.35,670.26
47.36,704.68
47.37,737.6
47.38,723.66
47.39,739.18
47.4,725.22
47.41,662.49
47.42,780.06
47.43,680.61
47.44,761.24
47.45,766.31
47.46,689.89
47.47,787.15
47.48,718.95
47.49,678.5
47.5,798.83
47.51,701.55
47.52,664.68
47.53,762.82
47.54,722.53
47.55,724.16
47.56,721.81
47.57,693.28
47.58,729.93
47.59,733.29
47.6,670.5
47.61,729.83
47.62,725.43
47.63,688.23
47.64,726.62
47.65,735.57
47.66,658.17
47.67,687.75
47.68,707.92
47.69,700.7
47.7,760.81
47.71,665.23
47.72,728.89
47.73,700.89
47.74,759.68
47.75,731.96
47.76,684.5
47.77,744.02
47.78,753.11
47.79,683.55
47.8,748.49
47.81,721.91
47.82,667.5
47.83,684.39
47.84,713.12
47.85,760.19
47.86,678.23
47.87,732.55
47.88,733.68
47.89,701.58
47.9,678.14
47.91,792.12
47.92,674.29
47.93,740.68
47.94,720.29
47.95,692.62
47.96,756.2
47.97,701.56
47.98,707.0
47.99,735.29
48.0,656.93
48.01,729.81
48.02,780.17
48.03,715.71
48.04,677.51
48.05,722.09
48.06,665.36
48.07,761.21
48.08,688.16
48.09,729.64
48.1,748.2
48.11,678.52
48.12,732.8
48.13,751.67
48.14,686.83
48.15,742.42
48.16,740.06
48.17,690.38
48.18,772.89
48.19,688.48
48.2,749.29
48.21,723.91
48.22,683.32
48.23,722.31
48.24,773.88
48.25,702.07
48.26,674.51
48.27,712.36
48.28,740.35
48.29,712.72
48.3,715.31
48.31,709.26
48.32,762.81
48.33,669.29
48.34,723.61
48.35,686.39
48.36,728.08
48.37,725.94
48.38,714.68
48.39,742.01
48.4,692.78
48.41,744.43
48.42,728.83
48.43,724.79
48.44,672.46
48.45,715.77
48.46,709.33
48.47,716.45
48.48,708.93
48.49,692.13
48.5,717.61
48.51,756.75
48.52,696.12
48.53,717.05
48.54,740.02
48.55,741.78
48.56,703.99
48.57,689.57
48.58,734.91
48.59,728.49
48.6,665.67
48.61,727.14
48.62,742.05
48.63,658.33
48.64,719.15
48.65,735.74
48.66,721.46
48.67,695.24
48.68,728.58
48.69,684.56
48.7,717.51
48.71,710.64
48.72,722.87
48.73,726.06
48.74,738.05
48.75,694.73
48.76,690.89
48.77,808.95
48.78,705.03
48.79,657.41
48.8,670.02
48.81,748.18
48.82,747.98
48.83,696.76
48.84,740.03
48.85,691.34
48.86,730.02
48.87,684.38
48.88,753.5
48.89,711.31
48.9,680.0
48.91,692.0
48.92,698.25
48.93,702.67
48.94,773.28
48.95,698.6
48.96,705.24
48.97,739.04
48.98,679.84
48.99,725.0
49.0,693.19
49.01,720.85
49.02,674.43
49.03,752.66
49.04,690.61
49.05,754.61
49.06,701.22
49.07,704.01
49.08,709.14
49.09,754.84
49.1,723.56
49.11,691.24
49.12,684.76
49.13,739.49
49.14,671.13
49.15,728.5
49.16,770.22
49.17,717.16
49.18,660.42
49.19,745.39
49.2,688.03
49.21,711.73
49.22,743.22
49.23,692.18
49.24,697.86
49.25,734.81
49.26,699.0
49.27,773.52
49.28,766.84
49.29,708.64
49.3,764.61
49.31,674.85
49.32,750.23
49.33,751.2
49.34,708.91
49.35,738.65
49.36,717.81
49.37,669.47
49.38,717.18
49.39,761.76
49.4,706.46
49.41,714.16
49.42,724.8
49.43,701.92
49.44,746.62
49.45,710.74
49.46,711.52
49.47,783.31
49.48,710.62
49.49,685.21
49.5,726.85
49.51,680.94
49.52,703.28
49.53,773.88
49.54,665.84
49.55,706.46
49.56,759.95
49.57,707.47
49.58,647.7
49.59,745.23
49.6,674.19
49.61,733.7
49.62,716.09
49.63,719.18
49.64,736.64
49.65,700.04
49.66,718.55
49.67,712.18
49.68,671.59
49.69,747.68
49.7,648.72
49.71,722.17
49.72,740.89
49.73,719.82
49.74,684.2
49.75,686.72
49.76,691.13
49.77,732.87
49.78,719.22
49.79,709.62
49.8,724.25
49.81,738.88
49.82,693.26
49.83,673.35
49.84,686.27
49.85,667.16
49.86,767.3
49.87,669.24
49.88,777.04
49.89,723.14
49.9,669.16
49.91,732.34
49.92,710.4
49.93,679.28
49.94,707.86
49.95,698.64
49.96,703.88
49.97,709.7
49.98,669.41
49.99,696.16
50.0,713.54
50.01,675.59
50.02,716.59
50.03,744.21
50.04,678.88
50.05,798.05
50.06,667.46
50.07,714.31
50.08,786.51
50.09,676.12
50.1,723.42
50.11,738.34
50.12,703.48
50.13,690.51
50.14,731.03
50.15,687.82
50.16,729.01
50.17,682.99
50.18,726.86
50.19,717.16
50.2,745.81
50.21,682.14
50.22,736.0
50.23,715.47
50.24,682.6
50.25,756.87
50.26,714.22
50.27,692.84
50.28,752.3
50.29,729.76
50.3,690.89
50.31,753.03
50.32,711.28
50.33,730.9
50.34,725.36
50.35,756.64
50.36,740.54
50.37,695.46
50.38,717.58
50.39,712.85
50.4,745.96
50.41,730.46
50.42,709.31
50.43,701.23
50.44,743.0
50.45,754.14
50.46,726.97
50.47,723.08
50.48,719.73
50.49,755.0
50.5,666.89
50.51,730.51
50.52,720.78
50.53,734.32
50.54,668.62
50.55,744.76
50.56,669.85
50.57,736.28
50.58,714.13
50.59,709.17
50.6,714.83
50.61,699.69
50.62,685.3
50.63,772.98
50.64,677.32
50.65,745.48
50.66,750.92
50.67,721.42
50.68,710.31
50.69,709.57
50.7,688.19
50.71,718.84
50.72,727.92
50.73,696.05
50.74,703.0
50.75,682.09
50.76,719.44
50.77,741.63
50.78,709.43
50.79,704.89
50.8,731.74
50.81,705.22
50.82,698.33
50.83,710.91
50.84,737.17
50.85,692.06
50.86,712.5
50.87,741.32
50.88,701.65
50.89,718.78
50.9,731.32
50.91,738.52
50.92,696.15
50.93,695.11
50.94,701.1
50.95,717.89
50.96,722.05
50.97,752.65
50.98,712.06
50.99,717.26
51.0,758.34
51.01,707.7
51.02,722.11
51.03,712.25
51.04,733.66
51.05,735.1
51.06,732.55
51.07,723.49
51.08,721.97
51.09,670.86
51.1,702.75
51.11,747.71
51.12,708.78
51.13,714.55
51.14,715.6
51.15,703.34
51.16,750.97
51.17,709.21
51.18,758.34
51.19,709.52
51.2,728.56
51.21,757.59
51.22,697.89
51.23,702.51
51.24,756.03
51.25,693.07
51.26,769.5
51.27,721.26
51.28,726.53
51.29,711.85
51.3,748.32
51.31,707.67
51.32,733.64
51.33,726.81
51.34,676.22
51.35,740.66
51.36,695.71
51.37,770.75
51.38,683.65
51.39,731.38
51.4,719.22
51.41,736.21
51.42,726.57
51.43,670.58
51.44,698.17
51.45,747.39
51.46,693.44
51.47,718.58
51.48,735.46
51.49,686.21
51.5,687.02
51.51,724.82
51.52,663.89
51.53,724.2
51.54,712.64
51.55,720.73
51.56,745.91
51.57,727.42
51.58,720.72
51.59,700.27
51.6,746.51
51.61,701.66
51.62,739.49
51.63,744.21
51.64,730.52
51.65,695.31
51.66,748.48
51.67,729.6
51.68,710.71
51.69,700.69
51.7,733.85
51.71,658.83
51.72,747.45
51.73,730.52
51.74,665.38
51.75,755.43
51.76,684.18
51.77,730.49
51.78,688.57
51.79,719.49
51.8,740.75
51.81,708.81
51.82,734.63
51.83,706.73
51.84,766.88
51.85,698.81
51.86,756.1
51.87,737.06
51.88,711.78
51.89,732.51
51.9,697.36
51.91,749.58
51.92,699.09
51.93,696.6
51.94,710.09
51.95,689.42
51.96,718.72
51.97,723.51
51.98,695.93
51.99,730.46
52.0,673.01
52.01,788.87
52.02,706.23
52.03,680.72
52.04,746.85
52.05,716.59
52.06,722.38
52.07,732.71
52.08,688.87
52.09,753.43
52.1,730.08
52.11,682.74
52.12,734.14
52.13,735.67
52.14,689.91
52.15,757.99
52.16,669.57
52.17,722.67
52.18,738.59
52.19,739.76
52.2,737.6
52.21,749.45
52.22,716.34
52.23,764.28
52.24,725.2
52.25,704.04
52.26,738.94
52.27,724.65
52.28,669.57
52.29,739.63
52.3,1764.89
52.31,2283.65
52.32,755.7
52.33,735.55
52.34,688.38
52.35,791.89
52.36,730.39
52.37,703.95
52.38,728.11
52.39,756.52
52.4,713.4
52.41,700.46
52.42,691.73
52.43,796.44
52.44,656.55
52.45,719.32
52.46,769.3
52.47,721.7
52.48,725.2
52.49,750.18
52.5,671.89
52.51,703.17
52.52,793.43
52.53,755.06
52.54,689.74
52.55,720.69
52.56,739.61
52.57,691.74
52.58,670.52
52.59,733.64
52.6,694.6
52.61,733.84
52.62,714.99
52.63,705.71
52.64,730.88
52.65,718.99
52.66,761.03
52.67,742.49
52.68,738.65
52.69,714.4
52.7,727.46
52.71,758.78
52.72,765.25
52.73,702.66
52.74,713.9
52.75,655.16
52.76,726.65
52.77,720.63
52.78,787.78
52.79,738.41
52.8,724.23
52.81,756.54
52.82,738.99
52.83,716.66
52.84,704.41
52.85,771.86
52.86,731.04
52.87,752.1
52.88,719.25
52.89,716.89
52.9,704.36
52.91,743.25
52.92,753.37
52.93,686.22
52.94,690.53
52.95,752.38
52.96,739.44
52.97,729.68
52.98,712.39
52.99,702.49
53.0,727.38
53.01,757.06
53.02,709.48
53.03,797.69
53.04,763.18
53.05,704.82
53.06,777.59
53.07,739.54
53.08,693.5
53.09,737.63
53.1,720.5
53.11,711.39
53.12,691.99
53.13,1035.48
53.14,1417.76
53.15,1310.33
53.16,1379.67
53.17,944.96
53.18,675.47
53.19,786.14
53.2,692.07
53.21,752.61
53.22,756.02
53.23,680.46
53.24,720.38
53.25,740.95
53.26,735.93
53.27,770.96
53.28,696.86
53.29,709.0
53.3,740.76
53.31,696.92
53.32,729.74
53.33,721.07
53.34,745.78
53.35,748.95
53.36,725.5
53.37,749.58
53.38,761.8
53.39,749.65
53.4,671.85
53.41,716.28
53.42,722.93
53.43,752.68
53.44,676.13
53.45,724.04
53.46,791.4
53.47,729.92
53.48,704.79
53.49,719.5
53.5,695.87
53.51,746.65
53.52,655.51
53.53,743.49
53.54,728.88
53.55,713.32
53.56,722.54
53.57,668.07
53.58,700.24
53.59,714.71
53.6,705.53
53.61,749.58
53.62,726.95
53.63,727.21
53.64,680.95
53.65,779.86
53.66,721.24
53.67,686.97
53.68,769.53
53.69,699.53
53.7,691.33
53.71,715.42
53.72,749.0
53.73,722.53
53.74,711.26
53.75,691.64
53.76,751.74
53.77,718.57
53.78,672.36
53.79,726.05
53.8,690.46
53.81,728.05
53.82,696.76
53.83,748.47
53.84,684.57
53.85,724.94
53.86,713.04
53.87,742.31
53.88,673.74
53.89,762.02
53.9,725.02
53.91,687.68
53.92,696.68
53.93,757.73
53.94,693.79
53.95,739.41
53.96,688.96
53.97,719.81
53.98,768.78
53.99,658.79
54.0,764.11
54.01,628.05
54.02,716.82
54.03,713.78
54.04,715.18
54.05,716.67
54.06,691.09
54.07,728.65
54.08,699.6
54.09,724.02
54.1,680.44
54.11,685.61
54.12,738.34
54.13,748.81
54.14,670.13
54.15,720.74
54.16,699.25
54.17,732.01
54.18,741.48
54.19,682.2
54.2,704.41
54.21,667.98
54.22,687.98
54.23,703.39
54.24,731.99
54.25,752.64
54.26,698.38
54.27,616.54
54.28,734.17
54.29,672.16
54.3,726.66
54.31,717.45
54.32,719.4
54.33,680.31
54.34,748.86
54.35,694.73
54.36,690.6
54.37,740.34
54.38,682.72
54.39,744.98
54.4,683.54
54.41,710.66
54.42,701.5
54.43,687.93
54.44,723.73
54.45,746.35
54.46,669.21
54.47,743.52
54.48,717.44
54.49,707.21
54.5,676.94
54.51,713.26
54.52,746.16
54.53,714.16
54.54,688.12
54.55,760.53
54.56,730.24
54.57,700.43
54.58,723.32
54.59,707.73
54.6,706.36
54.61,726.94
54.62,741.0
54.63,671.39
54.64,747.31
54.65,731.96
54.66,673.84
54.67,721.16
54.68,686.98
54.69,713.23
54.7,709.26
54.71,749.68
54.72,765.56
54.73,703.44
54.74,682.15
54.75,706.52
54.76,727.34
54.77,670.26
54.78,732.56
54.79,689.82
54.8,696.84
54.81,714.55
54.82,714.28
54.83,711.5
54.84,678.88
54.85,680.97
54.86,736.1
54.87,710.79
54.88,737.05
54.89,741.63
54.9,672.8
54.91,703.99
54.92,737.93
54.93,734.94
54.94,631.2
54.95,730.84
54.96,707.65
54.97,720.49
54.98,707.68
54.99,635.63
55.0,753.75
55.01,672.54
55.02,746.2
55.03,712.86
55.04,726.53
55.05,691.44
55.06,728.48
55.07,733.38
55.08,723.38
55.09,704.63
55.1,667.26
55.11,712.88
55.12,718.45
55.13,716.89
55.14,728.6
55.15,692.93
55.16,773.99
55.17,735.69
55.18,668.98
55.19,711.12
55.2,712.26
55.21,754.78
55.22,679.49
55.23,759.47
55.24,749.23
55.25,696.11
55.26,707.42
55.27,710.32
55.28,702.9
55.29,751.52
55.3,741.12
55.31,698.32
55.32,741.04
55.33,691.86
55.34,724.68
55.35,748.16
55.36,774.5
55.37,750.58
55.38,721.36
55.39,746.52
55.4,745.53
55.41,690.97
55.42,711.39
55.43,726.73
55.44,714.85
55.45,686.43
55.46,720.05
55.47,750.44
55.48,680.75
55.49,742.02
55.5,773.29
55.51,683.92
55.52,757.23
55.53,656.25
55.54,733.74
55.55,768.79
55.56,712.25
55.57,742.55
55.58,640.39
55.59,747.5
55.6,728.02
55.61,629.86
55.62,758.28
55.63,722.35
55.64,666.73
55.65,711.82
55.66,675.27
55.67,716.98
55.68,737.75
55.69,622.69
55.7,741.47
55.71,728.45
55.72,644.8
55.73,730.26
55.74,652.07
55.75,711.93
55.76,772.02
55.77,649.12
55.78,729.97
55.79,718.49
55.8,699.46
55.81,729.74
55.82,710.42
55.83,689.35
55.84,758.02
55.85,698.16
55.86,637.95
55.87,743.85
55.88,635.43
55.89,735.12
55.9,732.79
55.91,619.03
55.92,777.94
55.93,670.59
55.94,765.49
55.95,662.61
55.96,741.75
55.97,767.85
55.98,715.05
55.99,714.66
56.0,678.56
56.01,722.2
56.02,747.57
56.03,718.8
56.04,716.0
56.05,694.07
56.06,714.4
56.07,718.81
56.08,658.32
56.09,714.03
56.1,771.65
56.11,681.09
56.12,689.62
56.13,792.67
56.14,677.03
56.15,736.73
56.16,701.56
56.17,730.85
56.18,672.04
56.19,777.21
56.2,731.45
56.21,743.33
56.22,748.04
56.23,695.81
56.24,700.91
56.25,721.56
56.26,720.18
56.27,799.69
56.28,707.39
56.29,701.72
56.3,780.13
56.31,729.9
56.32,740.42
56.33,688.75
56.34,729.35
56.35,738.51
56.36,671.63
56.37,737.75
56.38,712.82
56.39,717.14
56.4,752.21
56.41,721.66
56.42,685.66
56.43,751.67
56.44,674.15
56.45,721.59
56.46,710.01
56.47,721.44
56.48,710.15
56.49,709.29
56.5,737.56
56.51,720.8
56.52,688.11
56.53,702.03
56.54,705.84
56.55,702.37
56.56,721.56
56.57,731.62
56.58,725.13
56.59,721.63
56.6,731.53
56.61,714.95
56.62,685.1
56.63,710.96
56.64,745.87
56.65,687.94
56.66,734.6
56.67,697.32
56.68,731.79
56.69,737.67
56.7,674.79
56.71,718.3
56.72,712.77
56.73,738.25
56.74,708.08
56.75,683.18
56.76,727.84
56.77,721.34
56.78,702.08
56.79,736.65
56.8,692.08
56.81,705.85
56.82,702.46
56.83,738.77
56.84,751.53
56.85,696.73
56.86,694.28
56.87,729.61
56.88,713.79
56.89,731.26
56.9,734.44
56.91,651.72
56.92,733.37
56.93,737.63
56.94,675.36
56.95,724.99
56.96,741.06
56.97,720.31
56.98,749.94
56.99,668.36
57.0,757.63
57.01,705.88
57.02,726.46
57.03,708.15
57.04,716.55
57.05,726.86
57.06,697.69
57.07,716.78
57.08,750.59
57.09,710.5
57.1,700.84
57.11,724.28
57.12,715.67
57.13,716.84
57.14,740.0
57.15,669.86
57.16,706.22
57.17,686.68
57.18,753.32
57.19,725.44
57.2,721.73
57.21,719.24
57.22,716.2
57.23,671.0
57.24,764.83
57.25,689.95
57.26,688.37
57.27,710.73
57.28,742.25
57.29,666.97
57.3,744.77
57.31,688.57
57.32,740.62
57.33,680.96
57.34,737.73
57.35,664.53
57.36,778.11
57.37,690.45
57.38,701.51
57.39,747.03
57.4,684.42
57.41,708.02
57.42,693.65
57.43,717.77
57.44,704.55
57.45,729.54
57.46,715.88
57.47,760.2
57.48,688.24
57.49,687.09
57.5,725.24
57.51,730.07
57.52,720.9
57.53,714.79
57.54,738.92
57.55,739.34
57.56,736.55
57.57,678.02
57.58,781.02
57.59,718.12
57.6,726.41
57.61,718.38
57.62,661.09
57.63,723.79
57.64,702.69
57.65,737.05
57.66,692.63
57.67,751.98
57.68,711.79
57.69,676.64
57.7,708.22
57.71,688.94
57.72,725.77
57.73,715.02
57.74,725.06
57.75,672.68
57.76,740.63
57.77,664.65
57.78,740.25
57.79,718.39
57.8,669.58
57.81,705.41
57.82,677.74
57.83,702.85
57.84,726.46
57.85,717.24
57.86,758.15
57.87,680.7
57.88,710.78
57.89,739.17
57.9,698.35
57.91,723.1
57.92,675.27
57.93,739.21
57.94,734.7
57.95,705.32
57.96,718.4
57.97,697.88
57.98,750.84
57.99,708.32
58.0,765.05
58.01,724.02
58.02,725.35
58.03,743.39
58.04,738.36
58.05,741.71
58.06,716.4
58.07,741.81
58.08,761.47
58.09,732.34
58.1,695.75
58.11,749.5
58.12,711.58
58.13,754.15
58.14,726.42
58.15,717.23
58.16,648.81
58.17,745.58
58.18,724.91
58.19,680.23
58.2,723.58
58.21,730.18
58.22,738.43
58.23,745.73
58.24,745.27
58.25,704.23
58.26,747.86
58.27,709.19
58.28,705.72
58.29,732.68
58.3,733.04
58.31,725.76
58.32,747.03
58.33,761.6
58.34,717.0
58.35,722.72
58.36,727.73
58.37,719.03
58.38,800.4
58.39,706.13
58.4,733.77
58.41,728.47
58.42,759.55
58.43,674.98
58.44,751.75
58.45,700.84
58.46,731.42
58.47,671.31
58.48,731.52
58.49,747.88
58.5,698.41
58.51,723.49
58.52,690.31
58.53,726.49
58.54,701.95
58.55,740.52
58.56,742.32
58.57,737.7
58.58,712.77
58.59,735.44
58.6,723.49
58.61,750.55
58.62,669.17
58.63,707.84
58.64,734.22
58.65,724.93
58.66,714.2
58.67,763.85
58.68,665.97
58.69,727.03
58.7,697.69
58.71,692.5
58.72,731.92
58.73,727.47
58.74,685.46
58.75,695.03
58.76,701.17
58.77,757.58
58.78,688.57
58.79,706.87
58.8,720.11
58.81,732.92
58.82,677.89
58.83,716.3
58.84,722.78
58.85,754.78
58.86,678.72
58.87,733.42
58.88,707.43
58.89,722.71
58.9,731.3
58.91,715.0
58.92,681.74
58.93,745.56
58.94,704.65
58.95,737.16
58.96,721.5
58.97,692.76
58.98,665.86
58.99,756.48
59.0,698.1
59.01,714.6
59.02,773.29
59.03,717.6
59.04,753.76
59.05,743.86
59.06,742.16
59.07,723.41
59.08,734.36
59.09,720.9
59.1,716.36
59.11,772.02
59.12,750.51
59.13,697.03
59.14,772.66
59.15,691.82
59.16,782.54
59.17,767.57
59.18,687.89
59.19,748.88
59.2,710.83
59.21,719.01
59.22,749.66
59.23,717.55
59.24,708.34
59.25,720.21
59.26,736.88
59.27,719.46
59.28,683.61
59.29,728.57
59.3,731.64
59.31,733.03
59.32,732.19
59.33,680.65
59.34,772.79
59.35,710.17
59.36,705.55
59.37,688.94
59.38,702.13
59.39,776.48
59.4,753.06
59.41,692.49
59.42,697.54
59.43,685.17
59.44,714.05
59.45,709.32
59.46,705.47
59.47,677.96
59.48,702.96
59.49,750.45
59.5,649.92
59.51,744.72
59.52,684.33
59.53,735.36
59.54,705.46
59.55,751.89
59.56,724.61
59.57,705.27
59.58,685.82
59.59,758.92
59.6,712.89
59.61,714.03
59.62,728.24
59.63,687.69
59.64,724.17
59.65,687.96
59.66,695.82
59.67,754.52
59.68,726.02
59.69,676.83
59.7,716.88
59.71,730.45
59.72,672.08
59.73,718.38
59.74,721.99
59.75,705.13
59.76,715.01
59.77,691.09
59.78,751.95
59.79,738.79
59.8,715.07
59.81,731.7
59.82,713.25
59.83,715.62
59.84,762.97
59.85,680.78
59.86,764.21
59.87,724.53
59.88,710.0
59.89,733.6
59.9,719.01
59.91,685.93
59.92,731.13
59.93,676.26
59.94,700.29
59.95,798.09
59.96,669.58
59.97,722.74
59.98,724.06
59.99,666.23
60.0,720.36
60.01,705.33
60.02,727.71
60.03,757.94
60.04,723.99
60.05,701.47
60.06,718.32
60.07,702.41
60.08,702.2
60.09,697.48
60.1,689.68
60.11,737.84
60.12,718.83
60.13,727.34
60.14,721.16
60.15,688.76
60.16,669.18
60.17,712.06
60.18,747.36
60.19,679.6
60.2,740.21
60.21,706.72
60.22,709.65
60.23,720.28
60.24,652.43
60.25,671.16
60.26,756.71
60.27,701.79
60.28,721.54
60.29,697.88
60.3,749.9
60.31,712.6
60.32,739.11
60.33,709.88
60.34,684.03
60.35,717.43
60.36,729.64
60.37,702.53
60.38,728.19
60.39,713.55
60.4,740.39
60.41,701.88
60.42,762.11
60.43,668.03
60.44,697.85
60.45,715.32
60.46,760.14
60.47,655.51
60.48,731.04
60.49,728.4
60.5,689.54
60.51,699.12
60.52,740.45
60.53,712.63
60.54,698.71
60.55,703.3
60.56,731.64
60.57,726.67
60.58,737.24
60.59,671.54
60.6,660.12
60.61,686.95
60.62,713.4
60.63,748.12
60.64,704.14
60.65,729.92
60.66,707.69
60.67,729.58
60.68,673.43
60.69,722.19
60.7,710.23
60.71,715.21
60.72,703.85
60.73,700.08
60.74,684.16
60.75,714.84
60.76,713.34
60.77,727.29
60.78,710.07
60.79,741.75
60.8,668.89
60.81,695.11
60.82,722.5
60.83,696.63
60.84,735.81
60.85,633.26
60.86,785.82
60.87,677.66
60.88,681.09
60.89,784.29
60.9,681.51
60.91,718.99
60.92,750.31
60.93,708.42
60.94,754.98
60.95,735.97
60.96,734.95
60.97,655.07
60.98,753.49
60.99,670.25
61.0,718.26
61.01,766.16
61.02,724.47
61.03,757.01
61.04,700.64
61.05,657.13
61.06,729.58
61.07,717.07
61.08,674.24
61.09,762.77
61.1,701.23
61.11,756.39
61.12,766.61
61.13,664.8
61.14,726.48
61.15,778.4
61.16,707.16
61.17,696.94
61.18,780.86
61.19,707.91
61.2,754.74
61.21,731.44
61.22,773.11
61.23,736.81
61.24,732.87
61.25,698.7
61.26,703.8
61.27,762.14
61.28,702.61
61.29,705.34
61.3,793.32
61.31,709.64
61.32,704.68
61.33,699.41
61.34,678.85
61.35,714.74
61.36,790.53
61.37,697.93
61.38,676.55
61.39,759.15
61.4,690.49
61.41,712.35
61.42,727.92
61.43,661.26
61.44,811.44
61.45,669.76
61.46,740.46
61.47,752.98
61.48,745.06
61.49,678.95
61.5,785.17
61.51,733.54
61.52,673.8
61.53,773.22
61.54,723.2
61.55,764.11
61.56,690.72
61.57,719.74
61.58,689.3
61.59,781.6
61.6,703.18
61.61,746.04
61.62,766.2
61.63,710.25
61.64,725.2
61.65,752.49
61.66,690.56
61.67,774.02
61.68,682.26
61.69,726.95
61.7,765.44
61.71,731.88
61.72,672.4
61.73,758.27
61.74,695.26
61.75,784.4
61.76,710.88
61.77,726.73
61.78,709.99
61.79,741.12
61.8,698.18
61.81,794.8
61.82,709.66
61.83,676.55
61.84,763.55
61.85,711.71
61.86,736.71
61.87,742.86
61.88,698.55
61.89,700.3
61.9,752.14
61.91,712.64
61.92,755.07
61.93,732.12
61.94,706.8
61.95,743.14
61.96,721.35
61.97,706.6
61.98,752.1
61.99,745.32
62.0,723.33
62.01,762.33
62.02,708.65
62.03,742.26
62.04,706.37
62.05,728.33
62.06,709.44
62.07,738.71
62.08,715.86
62.09,719.79
62.1,716.94
62.11,717.51
62.12,760.59
62.13,712.86
62.14,710.47
62.15,766.9
62.16,701.25
62.17,654.45
62.18,727.79
62.19,712.62
62.2,732.35
62.21,733.37
62.22,746.75
62.23,704.63
62.24,700.86
62.25,685.53
62.26,734.2
62.27,694.67
62.28,675.7
62.29,698.48
62.3,764.03
62.31,707.92
62.32,707.97
62.33,724.27
62.34,727.72
62.35,688.9
62.36,721.7
62.37,696.12
62.38,705.57
62.39,726.88
62.4,713.07
62.41,681.11
62.42,715.29
62.43,718.3
62.44,697.12
62.45,733.15
62.46,721.39
62.47,673.06
62.48,718.04
62.49,749.66
62.5,667.17
62.51,735.41
62.52,691.27
62.53,729.4
62.54,745.08
62.55,676.66
62.56,724.01
62.57,732.65
62.58,708.22
62.59,755.27
62.6,665.18
62.61,730.47
62.62,697.44
62.63,763.18
62.64,656.12
62.65,744.7
62.66,705.69
62.67,714.57
62.68,672.55
62.69,731.19
62.7,735.71
62.71,709.5
62.72,680.82
62.73,688.22
62.74,717.36
62.75,701.23
62.76,732.75
62.77,727.93
62.78,724.73
62.79,688.39
62.8,751.53
62.81,676.21
62.82,770.98
62.83,693.75
62.84,717.95
62.85,697.69
62.86,727.69
62.87,670.8
62.88,691.43
62.89,746.0
62.9,720.13
62.91,713.79
62.92,683.84
62.93,787.93
62.94,716.63
62.95,724.07
62.96,714.52
62.97,705.81
62.98,694.27
62.99,717.64
63.0,689.85
63.01,733.31
63.02,689.38
63.03,703.18
63.04,728.1
63.05,707.37
63.06,715.86
63.07,725.53
63.08,709.12
63.09,713.62
63.1,738.19
63.11,725.37
63.12,678.26
63.13,750.31
63.14,719.2
63.15,724.86
63.16,754.3
63.17,675.45
63.18,740.38
63.19,700.28
63.2,733.48
63.21,714.73
63.22,719.91
63.23,681.25
63.24,735.26
63.25,710.51
63.26,697.2
63.27,715.34
63.28,706.19
63.29,767.32
63.3,718.36
63.31,737.61
63.32,692.64
63.33,755.15
63.34,707.43
63.35,745.93
63.36,713.38
63.37,723.23
63.38,688.63
63.39,716.37
63.4,719.64
63.41,730.7
63.42,691.64
63.43,761.75
63.44,687.51
63.45,747.1
63.46,709.57
63.47,677.8
63.48,727.8
63.49,703.36
63.5,692.69
63.51,685.2
63.52,736.42
63.53,743.54
63.54,710.05
63.55,715.87
63.56,723.28
63.57,718.25
63.58,682.48
63.59,710.2
63.6,734.1
63.61,714.07
63.62,680.61
63.63,742.06
63.64,694.22
63.65,711.37
63.66,712.85
63.67,711.44
63.68,719.49
63.69,713.26
63.7,678.95
63.71,703.93
63.72,701.37
63.73,689.94
63.74,699.17
63.75,720.51
63.76,692.83
63.77,723.54
63.78,732.07
63.79,743.27
63.8,721.91
63.81,737.63
63.82,726.02
63.83,724.33
63.84,745.76
63.85,728.33
63.86,748.33
63.87,737.28
63.88,709.01
63.89,705.72
63.9,724.56
63.91,737.37
63.92,737.25
63.93,750.68
63.94,706.54
63.95,739.39
63.96,676.68
63.97,767.39
63.98,708.71
63.99,725.76
64.0,711.13
64.01,701.75
64.02,730.92
64.03,724.71
64.04,742.64
64.05,748.99
64.06,718.95
64.07,714.15
64.08,716.63
64.09,737.3
64.1,714.09
64.11,735.25
64.12,767.85
64.13,707.05
64.14,710.54
64.15,683.45
64.16,781.47
64.17,731.13
64.18,715.14
64.19,776.99
64.2,709.07
64.21,745.28
64.22,701.7
64.23,749.65
64.24,724.45
64.25,726.08
64.26,725.41
64.27,732.98
64.28,739.44
64.29,728.7
64.3,701.38
64.31,708.98
64.32,713.48
64.33,765.51
64.34,721.59
64.35,744.79
64.36,676.39
64.37,744.18
64.38,711.03
64.39,729.89
64.4,709.94
64.41,747.97
64.42,726.91
64.43,702.41
64.44,696.16
64.45,714.14
64.46,732.03
64.47,683.29
64.48,769.79
64.49,729.27
64.5,733.7
64.51,718.08
64.52,733.84
64.53,744.36
64.54,729.22
64.55,737.33
64.56,718.78
64.57,726.4
64.58,716.49
64.59,725.7
64.6,707.3
64.61,767.97
64.62,737.15
64.63,787.65
64.64,709.32
64.65,697.0
64.66,793.56
64.67,691.72
64.68,694.4
64.69,748.92
64.7,679.29
64.71,713.14
64.72,755.08
64.73,739.4
64.74,723.02
64.75,724.88
64.76,715.86
64.77,711.28
64.78,725.55
64.79,715.19
64.8,735.0
64.81,688.5
64.82,735.01
64.83,763.4
64.84,723.31
64.85,693.8
64.86,747.67
64.87,698.7
64.88,746.38
64.89,718.14
64.9,736.61
64.91,722.42
64.92,754.19
64.93,729.41
64.94,743.02
64.95,747.55
64.96,705.82
64.97,778.62
64.98,724.17
64.99,703.47
65.0,720.28
65.01,716.63
65.02,662.82
65.03,784.99
65.04,701.89
65.05,723.35
65.06,703.2
65.07,738.2
65.08,664.94
65.09,746.96
65.1,692.45
65.11,720.89
65.12,695.34
65.13,705.81
65.14,737.07
65.15,682.5
65.16,735.37
65.17,719.1
65.18,680.0
65.19,692.55
65.2,719.49
65.21,659.29
65.22,719.2
65.23,715.19
65.24,722.72
65.25,742.6
65.26,709.78
65.27,711.96
65.28,714.05
65.29,651.68
65.3,726.43
65.31,737.05
65.32,679.2
65.33,707.35
65.34,691.63
65.35,722.48
65.36,728.67
65.37,655.68
65.38,751.69
65.39,694.21
65.4,671.96
65.41,653.07
65.42,771.42
65.43,723.62
65.44,694.72
65.45,693.55
65.46,734.48
65.47,710.96
65.48,714.42
65.49,733.54
65.5,661.39
65.51,782.91
65.52,719.48
65.53,730.85
65.54,653.96
65.55,738.15
65.56,675.5
65.57,738.92
65.58,696.63
65.59,726.04
65.6,719.97
65.61,698.82
65.62,687.49
65.63,743.93
65.64,689.74
65.65,730.15
65.66,703.83
65.67,685.99
65.68,703.81
65.69,697.82
65.7,740.66
65.71,714.75
65.72,643.67
65.73,771.72
65.74,707.0
65.75,702.73
65.76,739.65
65.77,673.42
65.78,723.31
65.79,697.95
65.8,748.47
65.81,700.61
65.82,702.5
65.83,694.83
65.84,728.75
65.85,675.54
65.86,717.76
65.87,716.01
65.88,694.2
65.89,693.75
65.9,679.48
65.91,777.2
65.92,677.78
65.93,697.44
65.94,738.95
65.95,741.43
65.96,702.21
65.97,685.68
65.98,703.04
65.99,718.08
66.0,655.1
66.01,722.59
66.02,755.35
66.03,667.86
66.04,773.73
66.05,672.45
66.06,708.56
66.07,715.4
66.08,721.3
66.09,713.55
66.1,776.16
66.11,703.39
66.12,725.28
66.13,686.02
66.14,712.21
66.15,733.89
66.16,683.13
66.17,741.88
66.18,693.54
66.19,689.91
66.2,716.38
66.21,741.18
66.22,660.54
66.23,751.75
66.24,706.63
66.25,676.76
66.26,696.57
66.27,760.05
66.28,679.25
66.29,763.5
66.3,690.52
66.31,699.03
66.32,691.59
66.33,766.8
66.34,685.19
66.35,734.42
66.36,702.12
66.37,765.26
66.38,691.96
66.39,743.7
66.4,691.92
66.41,745.83
66.42,754.9
66.43,704.03
66.44,717.1
66.45,740.86
66.46,726.05
66.47,665.79
66.48,740.95
66.49,654.94
66.5,802.44
66.51,713.78
66.52,702.74
66.53,785.6
66.54,683.99
66.55,747.3
66.56,708.35
66.57,746.55
66.58,725.82
66.59,692.77
66.6,715.38
66.61,741.43
66.62,729.67
66.63,714.06
66.64,696.37
66.65,736.35
66.66,720.8
66.67,707.36
66.68,751.07
66.69,751.41
66.7,732.93
66.71,694.1
66.72,807.42
66.73,716.95
66.74,681.06
66.75,709.03
66.76,726.94
66.77,728.98
66.78,677.8
66.79,739.3
66.8,672.39
66.81,763.11
66.82,681.54
66.83,725.13
66.84,753.6
66.85,736.35
66.86,711.38
66.87,754.99
66.88,687.49
66.89,743.5
66.9,696.06
66.91,727.55
66.92,762.16
66.93,707.37
66.94,734.96
66.95,776.86
66.96,705.46
66.97,735.63
66.98,739.86
66.99,686.82
67.0,766.81
67.01,729.19
67.02,734.8
67.03,763.17
67.04,764.19
67.05,713.33
67.06,726.46
67.07,750.79
67.08,672.19
67.09,783.73
67.1,683.36
67.11,660.63
67.12,760.26
67.13,670.69
67.14,682.35
67.15,740.2
67.16,720.99
67.17,754.03
67.18,619.97
67.19,716.51
67.2,705.27
67.21,735.38
67.22,731.51
67.23,758.47
67.24,651.59
67.25,707.9
67.26,736.72
67.27,685.88
67.28,702.62
67.29,723.02
67.3,719.26
67.31,746.93
67.32,648.22
67.33,724.94
67.34,750.76
67.35,692.97
67.36,682.65
67.37,740.5
67.38,732.69
67.39,699.78
67.4,713.31
67.41,706.03
67.42,734.6
67.43,723.72
67.44,686.09
67.45,727.04
67.46,715.68
67.47,727.88
67.48,728.68
67.49,710.53
67.5,756.44
67.51,708.86
67.52,714.69
67.53,781.88
67.54,684.16
67.55,683.49
67.56,763.96
67.57,756.48
67.58,702.43
67.59,748.91
67.6,639.9
67.61,733.15
67.62,750.83
67.63,736.65
67.64,702.65
67.65,733.06
67.66,714.06
67.67,781.27
67.68,679.32
67.69,754.8
67.7,717.14
67.71,773.36
67.72,714.24
67.73,759.95
67.74,757.73
67.75,685.91
67.76,754.41
67.77,739.3
67.78,688.85
67.79,744.95
67.8,786.28
67.81,681.99
67.82,782.28
67.83,695.27
67.84,753.18
67.85,700.02
67.86,754.73
67.87,718.66
67.88,760.39
67.89,693.6
67.9,774.51
67.91,734.64
67.92,747.77
67.93,715.53
67.94,747.76
67.95,698.52
67.96,725.81
67.97,703.61
67.98,730.77
67.99,770.48
68.0,708.55
68.01,707.34
68.02,800.85
68.03,666.18
68.04,813.22
68.05,702.24
68.06,670.62
68.07,795.77
68.08,699.64
68.09,688.76
68.1,744.77
68.11,708.83
68.12,716.89
68.13,775.9
68.14,704.81
68.15,699.91
68.16,779.99
68.17,672.95
68.18,730.84
68.19,802.11
68.2,710.47
68.21,723.54
68.22,681.77
68.23,701.21
68.24,728.04
68.25,735.4
68.26,707.55
68.27,780.26
68.28,680.25
68.29,732.76
68.3,720.84
68.31,651.96
68.32,686.21
68.33,723.2
68.34,736.95
68.35,707.14
68.36,677.53
68.37,727.36
68.38,733.24
68.39,707.62
68.4,770.51
68.41,662.99
68.42,751.81
68.43,680.15
68.44,688.48
68.45,745.07
68.46,722.71
68.47,717.91
68.48,724.48
68.49,697.18
68.5,722.84
68.51,711.64
68.52,694.98
68.53,708.05
68.54,724.38
68.55,741.33
68.56,676.53
68.57,718.44
68.58,778.53
68.59,677.06
68.6,769.01
68.61,715.74
68.62,690.61
68.63,734.04
68.64,716.56
68.65,695.14
68.66,723.86
68.67,731.82
68.68,694.65
68.69,744.78
68.7,734.75
68.71,700.41
68.72,684.44
68.73,706.76
68.74,777.9
68.75,676.18
68.76,715.39
68.77,759.83
68.78,689.57
68.79,717.04
68.8,720.01
68.81,732.62
68.82,707.41
68.83,703.54
68.84,722.57
68.85,741.71
68.86,709.72
68.87,680.42
68.88,762.47
68.89,744.71
68.9,692.13
68.91,709.83
68.92,729.08
68.93,723.26
68.94,690.6
68.95,702.87
68.96,709.8
68.97,716.88
68.98,750.74
68.99,693.14
69.0,727.95
69.01,699.0
69.02,723.99
69.03,741.35
69.04,694.63
69.05,715.48
69.06,730.65
69.07,693.93
69.08,666.68
69.09,732.36
69.1,734.33
69.11,734.36
69.12,740.77
69.13,625.09
69.14,713.54
69.15,732.27
69.16,713.84
69.17,721.29
69.18,707.7
69.19,721.25
69.2,706.37
69.21,697.75
69.22,719.75
69.23,714.87
69.24,717.21
69.25,755.36
69.26,729.57
69.27,659.0
69.28,728.18
69.29,741.16
69.3,649.12
69.31,722.08
69.32,736.0
69.33,642.15
69.34,697.64
69.35,725.89
69.36,732.83
69.37,713.64
69.38,672.31
69.39,720.94
69.4,705.0
69.41,700.7
69.42,737.72
69.43,720.76
69.44,673.28
69.45,758.8
69.46,708.8
69.47,709.13
69.48,709.08
69.49,753.82
69.5,685.34
69.51,731.41
69.52,735.06
69.53,730.0
69.54,677.0
69.55,730.32
69.56,723.09
69.57,711.9
69.58,756.21
69.59,712.93
69.6,716.19
69.61,711.58
69.62,718.89
69.63,731.37
69.64,683.76
69.65,702.31
69.66,776.1
69.67,691.88
69.68,715.41
69.69,747.44
69.7,731.98
69.71,683.68
69.72,763.26
69.73,734.43
69.74,674.06
69.75,783.57
69.76,697.5
69.77,717.35
69.78,715.07
69.79,741.91
69.8,732.17
69.81,733.17
69.82,663.83
69.83,818.62
69.84,706.48
69.85,724.88
69.86,773.44
69.87,667.97
69.88,731.76
69.89,703.25
69.9,753.77
69.91,708.91
69.92,745.62
69.93,702.31
69.94,704.06
69.95,733.93
69.96,687.96
69.97,788.01
69.98,678.96
69.99,718.34
70.0,790.18
70.01,712.38
70.02,696.2
70.03,666.37
70.04,744.88
70.05,691.29
70.06,679.23
70.07,726.25
70.08,780.2
70.09,694.45
70.1,701.86
70.11,764.58
70.12,699.09
70.13,730.88
70.14,708.56
70.15,694.96
70.16,780.09
70.17,695.71
70.18,701.58
70.19,712.0
70.2,725.51
70.21,700.08
70.22,752.33
70.23,723.07
70.24,733.21
70.25,687.36
70.26,710.74
70.27,722.88
70.28,711.36
70.29,706.65
70.3,740.81
70.31,727.24
70.32,723.16
70.33,697.79
70.34,701.27
70.35,732.32
70.36,724.68
70.37,729.81
70.38,752.94
70.39,667.65
70.4,726.08
70.41,735.98
70.42,734.11
70.43,728.97
70.44,746.44
70.45,744.39
70.46,755.76
70.47,746.96
70.48,746.94
70.49,705.97
70.5,735.71
70.51,754.16
70.52,707.46
70.53,726.51
70.54,744.71
70.55,728.74
70.56,747.75
70.57,731.4
70.58,757.14
70.59,728.32
70.6,753.07
70.61,727.63
70.62,726.91
70.63,776.0
70.64,756.47
70.65,705.85
70.66,730.1
70.67,737.23
70.68,684.9
70.69,737.28
70.7,715.52
70.71,730.13
70.72,723.83
70.73,710.92
70.74,682.93
70.75,702.37
70.76,774.54
70.77,699.54
70.78,733.62
70.79,739.05
70.8,702.64
70.81,716.44
70.82,749.74
70.83,688.19
70.84,712.58
70.85,761.1
70.86,727.36
70.87,715.56
70.88,713.62
70.89,667.77
70.9,760.24
70.91,698.1
70.92,661.94
70.93,715.03
70.94,676.61
70.95,712.91
70.96,735.4
70.97,715.15
70.98,711.5
70.99,658.9
71.0,719.36
71.01,719.66
71.02,714.19
71.03,716.49
71.04,709.74
71.05,679.04
71.06,750.44
71.07,706.85
71.08,716.73
71.09,693.67
71.1,685.53
71.11,733.57
71.12,720.35
71.13,649.67
71.14,723.35
71.15,695.23
71.16,701.62
71.17,750.9
71.18,699.56
71.19,708.81
71.2,703.78
71.21,671.34
71.22,715.35
71.23,704.78
71.24,686.28
71.25,734.79
71.26,688.49
71.27,695.14
71.28,727.28
71.29,710.71
71.3,702.94
71.31,727.96
71.32,707.78
71.33,732.18
71.34,742.58
71.35,728.1
71.36,669.98
71.37,732.14
71.38,702.83
71.39,665.36
71.4,715.76
71.41,748.39
71.42,728.91
71.43,674.24
71.44,734.07
71.45,698.49
71.46,719.51
71.47,687.39
71.48,717.57
71.49,725.09
71.5,699.18
71.51,745.47
71.52,716.42
71.53,675.99
71.54,743.32
71.55,698.35
71.56,690.72
71.57,708.14
71.58,692.25
71.59,682.61
71.6,703.84
71.61,757.42
71.62,732.08
71.63,739.65
71.64,695.6
71.65,747.91
71.66,723.7
71.67,733.1
71.68,753.88
71.69,724.28
71.7,713.46
71.71,744.02
71.72,652.44
71.73,745.29
71.74,724.93
71.75,724.21
71.76,672.42
71.77,726.21
71.78,740.78
71.79,723.81
71.8,686.6
71.81,703.07
71.82,719.01
71.83,730.08
71.84,678.58
71.85,716.86
71.86,673.27
71.87,697.72
71.88,737.58
71.89,714.95
71.9,675.17
71.91,750.91
71.92,673.27
71.93,704.25
71.94,719.47
71.95,716.12
71.96,718.9
71.97,724.31
71.98,712.14
71.99,706.65
72.0,712.04
72.01,736.62
72.02,691.82
72.03,701.03
72.04,685.88
72.05,743.37
72.06,717.0
72.07,714.01
72.08,688.23
72.09,705.63
72.1,677.51
72.11,734.93
72.12,753.14
72.13,705.84
72.14,731.33
72.15,691.46
72.16,716.6
72.17,755.27
72.18,732.59
72.19,728.41
72.2,769.06
72.21,741.31
72.22,705.37
72.23,671.75
72.24,727.26
72.25,694.64
72.26,704.12
72.27,773.15
72.28,736.92
72.29,682.49
72.3,747.24
72.31,699.12
72.32,729.02
72.33,737.72
72.34,717.72
72.35,677.53
72.36,745.58
72.37,735.4
72.38,700.45
72.39,712.58
72.4,717.63
72.41,683.6
72.42,765.48
72.43,723.11
72.44,733.08
72.45,693.01
72.46,760.3
72.47,700.95
72.48,728.56
72.49,717.88
72.5,725.0
72.51,718.32
72.52,703.55
72.53,778.74
72.54,716.93
72.55,721.35
72.56,673.94
72.57,748.6
72.58,732.7
72.59,710.77
72.6,758.52
72.61,716.84
72.62,740.63
72.63,692.65
72.64,769.41
72.65,763.94
72.66,728.78
72.67,714.4
72.68,702.35
72.69,712.85
72.7,763.12
72.71,710.95
72.72,719.4
72.73,713.08
72.74,725.23
72.75,740.96
72.76,687.72
72.77,754.93
72.78,696.34
72.79,725.26
72.8,757.56
72.81,760.52
72.82,705.25
72.83,678.85
72.84,791.64
72.85,703.37
72.86,799.69
72.87,686.52
72.88,754.8
72.89,731.43
72.9,729.51
72.91,733.94
72.92,729.91
72.93,760.18
72.94,703.05
72.95,749.57
72.96,725.79
72.97,716.31
72.98,719.21
72.99,688.28
73.0,748.24
73.01,744.37
73.02,724.02
73.03,725.78
73.04,740.07
73.05,734.69
73.06,740.96
73.07,715.39
73.08,726.88
73.09,725.01
73.1,748.79
73.11,701.95
73.12,748.13
73.13,725.98
73.14,760.73
73.15,667.04
73.16,752.47
73.17,703.46
73.18,693.76
73.19,713.58
73.2,718.08
73.21,712.88
73.22,732.32
73.23,742.48
73.24,759.4
73.25,708.87
73.26,739.14
73.27,725.07
73.28,765.03
73.29,706.53
73.3,676.35
73.31,764.42
73.32,711.78
73.33,725.97
73.34,695.27
73.35,750.05
73.36,738.41
73.37,683.1
73.38,772.07
73.39,722.25
73.4,672.36
73.41,760.23
73.42,716.87
73.43,728.88
73.44,701.14
73.45,792.05
73.46,680.52
73.47,724.76
73.48,764.22
73.49,678.92
73.5,784.87
73.51,659.87
73.52,717.24
73.53,765.89
73.54,711.44
73.55,726.05
73.56,708.55
73.57,748.73
73.58,700.13
73.59,759.27
73.6,702.26
73.61,738.42
73.62,721.83
73.63,715.49
73.64,706.36
73.65,751.02
73.66,741.8
73.67,721.42
73.68,664.38
73.69,725.26
73.7,772.59
73.71,697.67
73.72,712.02
73.73,756.2
73.74,703.09
73.75,673.72
73.76,788.79
73.77,696.26
73.78,738.24
73.79,633.11
73.8,739.32
73.81,750.13
73.82,670.23
73.83,714.81
73.84,715.35
73.85,689.14
73.86,715.74
73.87,713.12
73.88,711.71
73.89,748.12
73.9,698.06
73.91,745.85
73.92,697.9
73.93,724.43
73.94,711.4
73.95,740.15
73.96,754.59
73.97,718.53
73.98,682.0
73.99,730.33
74.0,712.59
74.01,718.5
74.02,735.51
74.03,720.31
74.04,677.1
74.05,750.41
74.06,737.57
74.07,706.4
74.08,719.75
74.09,717.66
74.1,690.84
74.11,746.26
74.12,707.81
74.13,712.8
74.14,730.99
74.15,652.21
74.16,716.39
74.17,729.04
74.18,690.18
74.19,779.97
74.2,635.37
74.21,724.59
74.22,711.85
74.23,742.16
74.24,707.88
74.25,707.7
74.26,722.29
74.27,713.49
74.28,745.85
74.29,705.49
74.3,692.16
74.31,737.4
74.32,645.43
74.33,719.19
74.34,698.77
74.35,755.1
74.36,703.66
74.37,735.2
74.38,696.93
74.39,768.34
74.4,711.02
74.41,700.73
74.42,719.4
74.43,765.54
74.44,708.68
74.45,687.47
74.46,685.43
74.47,735.6
74.48,699.89
74.49,709.51
74.5,704.13
74.51,770.86
74.52,683.17
74.53,732.66
74.54,721.11
74.55,698.77
74.56,720.09
74.57,669.38
74.58,682.0
74.59,774.54
74.6,728.01
74.61,703.48
74.62,745.91
74.63,669.92
74.64,706.2
74.65,713.06
74.66,710.22
74.67,757.59
74.68,655.32
74.69,701.04
74.7,700.0
74.71,742.66
74.72,714.08
74.73,700.52
74.74,718.88
74.75,700.72
74.76,694.25
74.77,729.75
74.78,695.55
74.79,724.51
74.8,717.29
74.81,724.16
74.82,751.1
74.83,712.56
74.84,651.54
74.85,714.31
74.86,708.06
74.87,735.34
74.88,750.46
74.89,706.81
74.9,755.03
74.91,710.97
74.92,697.57
74.93,695.75
74.94,742.98
74.95,692.56
74.96,795.8
74.97,704.87
74.98,730.71
74.99,679.27
75.0,758.97
75.01,667.2
75.02,740.38
75.03,723.44
75.04,697.61
75.05,707.51
75.06,683.41
75.07,756.8
75.08,717.37
75.09,727.83
75.1,705.69
75.11,683.34
75.12,743.47
75.13,683.76
75.14,712.51
75.15,732.17
75.16,725.35
75.17,698.78
75.18,777.41
75.19,700.51
75.2,673.16
75.21,690.67
75.22,709.87
75.23,718.84
75.24,761.66
75.25,674.69
75.26,717.9
75.27,685.35
75.28,756.62
75.29,728.12
75.3,669.39
75.31,720.09
75.32,759.49
75.33,689.34
75.34,752.0
75.35,720.71
75.36,723.09
75.37,676.05
75.38,701.39
75.39,741.79
75.4,783.28
75.41,715.51
75.42,706.44
75.43,762.52
75.44,718.74
75.45,731.37
75.46,773.77
75.47,740.46
75.48,695.36
75.49,743.76
75.5,740.8
75.51,737.32
75.52,663.09
75.53,742.46
75.54,687.96
75.55,714.82
75.56,753.82
75.57,730.18
75.58,751.91
75.59,675.7
75.6,748.19
75.61,726.88
75.62,765.4
75.63,638.73
75.64,749.79
75.65,686.19
75.66,767.85
75.67,713.15
75.68,752.03
75.69,672.88
75.7,743.49
75.71,765.48
75.72,747.39
75.73,697.73
75.74,768.86
75.75,698.41
75.76,755.06
75.77,736.97
75.78,743.55
75.79,745.81
75.8,731.46
75.81,754.94
75.82,680.26
75.83,683.87
75.84,739.46
75.85,799.13
75.86,695.3
75.87,769.64
75.88,730.42
75.89,704.01
75.9,728.51
75.91,736.14
75.92,718.22
75.93,710.21
75.94,717.25
75.95,686.23
75.96,794.45
75.97,718.14
75.98,714.65
75.99,789.98
76.0,690.07
76.01,772.13
76.02,716.2
76.03,706.0
76.04,703.67
76.05,705.46
76.06,718.17
76.07,771.5
76.08,654.26
76.09,736.69
76.1,734.93
76.11,698.86
76.12,725.7
76.13,795.64
76.14,670.13
76.15,712.44
76.16,723.87
76.17,703.12
76.18,785.07
76.19,698.25
76.2,678.46
76.21,799.19
76.22,667.55
76.23,718.85
76.24,800.9
76.25,705.34
76.26,708.57
76.27,688.78
76.28,787.14
76.29,759.12
76.3,674.31
76.31,794.54
76.32,759.36
76.33,677.5
76.34,722.7
76.35,742.13
76.36,688.59
76.37,765.8
76.38,767.32
76.39,721.28
76.4,693.95
76.41,794.22
76.42,737.58
76.43,741.75
76.44,704.51
76.45,723.17
76.46,728.47
76.47,756.03
76.48,760.87
76.49,711.15
76.5,686.78
76.51,768.64
76.52,741.45
76.53,701.0
76.54,743.87
76.55,706.66
76.56,766.5
76.57,675.71
76.58,736.65
76.59,708.53
76.6,709.64
76.61,714.75
76.62,718.63
76.63,685.47
76.64,722.01
76.65,777.93
76.66,709.88
76.67,752.14
76.68,698.03
76.69,708.07
76.7,723.58
76.71,737.23
76.72,673.41
76.73,760.67
76.74,715.06
76.75,708.97
76.76,721.57
76.77,742.92
76.78,705.48
76.79,718.01
76.8,658.27
76.81,704.88
76.82,761.02
76.83,691.36
76.84,704.09
76.85,731.78
76.86,716.15
76.87,700.36
76.88,701.19
76.89,689.3
76.9,764.15
76.91,653.41
76.92,717.91
76.93,774.61
76.94,678.12
76.95,728.1
76.96,724.16
76.97,668.11
76.98,711.46
76.99,702.63
77.0,678.08
77.01,741.45
77.02,704.76
77.03,724.46
77.04,708.47
77.05,735.91
77.06,719.76
77.07,739.28
77.08,672.47
77.09,688.04
77.1,719.35
77.11,741.02
77.12,680.8
77.13,709.36
77.14,738.27
77.15,712.91
77.16,679.84
77.17,730.02
77.18,734.98
77.19,755.1
77.2,686.37
77.21,743.98
77.22,671.36
77.23,716.91
77.24,709.01
77.25,712.15
77.26,725.28
77.27,719.09
77.28,712.35
77.29,747.71
77.3,623.93
77.31,722.11
77.32,727.57
77.33,737.43
77.34,721.51
77.35,719.43
77.36,731.72
77.37,678.8
77.38,697.56
77.39,723.84
77.4,735.44
77.41,713.49
77.42,736.02
77.43,728.82
77.44,649.13
77.45,685.4
77.46,727.67
77.47,720.19
77.48,739.79
77.49,658.39
77.5,755.87
77.51,688.65
77.52,671.99
77.53,716.51
77.54,763.23
77.55,699.48
77.56,730.42
77.57,685.03
77.58,725.5
77.59,722.16
77.6,736.13
77.61,707.36
77.62,736.17
77.63,632.39
77.64,725.45
77.65,722.96
77.66,723.34
77.67,711.05
77.68,688.12
77.69,709.13
77.7,753.2
77.71,729.55
77.72,665.43
77.73,706.9
77.74,718.69
77.75,711.9
77.76,727.21
77.77,653.66
77.78,721.86
77.79,754.91
77.8,692.14
77.81,698.47
77.82,704.72
77.83,711.23
77.84,753.97
77.85,738.55
77.86,689.0
77.87,742.48
77.88,697.61
77.89,716.81
77.9,745.23
77.91,698.9
77.92,694.81
77.93,702.53
77.94,700.31
77.95,720.48
77.96,670.34
77.97,765.41
77.98,742.26
77.99,695.11
78.0,735.68
78.01,707.24
78.02,764.69
78.03,732.81
78.04,637.51
78.05,745.96
78.06,755.09
78.07,692.76
78.08,725.48
78.09,747.69
78.1,706.09
78.11,727.67
78.12,728.73
78.13,720.07
78.14,700.38
78.15,728.1
78.16,719.03
78.17,657.55
78.18,742.58
78.19,678.72
78.2,730.09
78.21,721.1
78.22,695.49
78.23,672.96
78.24,727.07
78.25,748.91
78.26,720.33
78.27,718.0
78.28,736.52
78.29,697.23
78.3,799.93
78.31,715.14
78.32,696.8
78.33,658.78
78.34,733.04
78.35,743.95
78.36,725.51
78.37,663.76
78.38,786.57
78.39,696.73
78.4,753.46
78.41,766.45
78.42,695.68
78.43,702.59
78.44,723.14
78.45,692.53
78.46,709.88
78.47,718.49
78.48,743.46
78.49,726.52
78.5,684.4
78.51,697.51
78.52,680.94
78.53,766.25
78.54,709.57
78.55,781.68
78.56,675.26
78.57,705.44
78.58,778.53
78.59,703.33
78.6,732.95
78.61,744.97
78.62,727.2
78.63,712.67
78.64,742.65
78.65,735.43
78.66,773.73
78.67,703.5
78.68,776.39
78.69,726.28
78.7,782.53
78.71,689.97
78.72,689.22
78.73,783.16
78.74,700.01
78.75,684.22
78.76,743.26
78.77,717.98
78.78,732.6
78.79,691.86
78.8,723.03
78.81,708.84
78.82,748.44
78.83,674.43
78.84,730.19
78.85,738.51
78.86,745.23
78.87,807.93
78.88,690.24
78.89,738.23
78.9,743.43
78.91,688.88
78.92,730.16
78.93,704.22
78.94,716.62
78.95,725.73
78.96,713.37
78.97,719.25
78.98,719.41
78.99,729.68
79.0,726.64
79.01,680.98
79.02,713.16
79.03,720.85
79.04,755.06
79.05,712.03
79.06,703.24
79.07,781.03
79.08,678.91
79.09,701.33
79.1,698.25
79.11,735.91
79.12,737.05
79.13,716.1
79.14,734.09
79.15,721.35
79.16,703.32
79.17,716.03
79.18,723.37
79.19,696.52
79.2,708.2
79.21,781.68
79.22,728.76
79.23,676.04
79.24,682.87
79.25,775.77
79.26,734.77
79.27,714.9
79.28,704.38
79.29,687.64
79.3,727.09
79.31,742.92
79.32,745.58
79.33,714.37
79.34,788.52
79.35,695.57
79.36,707.47
79.37,732.23
79.38,674.98
79.39,750.53
79.4,784.05
79.41,700.77
79.42,732.63
79.43,707.01
79.44,694.44
79.45,702.49
79.46,716.26
79.47,743.13
79.48,753.95
79.49,713.8
79.5,688.15
79.51,738.31
79.52,744.24
79.53,707.7
79.54,716.4
79.55,675.5
79.56,683.49
79.57,760.06
79.58,685.41
79.59,716.35
79.6,755.73
79.61,679.73
79.62,712.96
79.63,757.4
79.64,724.57
79.65,701.62
79.66,714.54
79.67,716.22
79.68,731.3
79.69,705.87
79.7,708.05
79.71,724.23
79.72,717.05
79.73,695.34
79.74,690.67
79.75,739.16
79.76,723.06
79.77,731.83
79.78,764.0
79.79,707.93
79.8,736.61
79.81,697.69
79.82,738.84
79.83,695.3
79.84,711.03
79.85,692.53
79.86,753.42
79.87,677.73
79.88,676.88
79.89,751.65
79.9,751.59
79.91,704.75
79.92,799.5
79.93,708.72
79.94,743.83
79.95,727.86
79.96,676.04
79.97,674.68
79.98,748.16
79.99,684.42
80.0,700.9
80.01,758.9
80.02,663.12
80.03,679.75
80.04,737.25
80.05,733.12
80.06,718.42
80.07,731.05
80.08,705.93
80.09,678.52
80.1,706.38
80.11,764.24
80.12,702.16
80.13,682.5
80.14,753.43
80.15,677.41
80.16,705.24
80.17,695.65
80.18,708.93
80.19,737.1
80.2,729.88
80.21,742.3
80.22,708.07
80.23,721.75
80.24,693.43
80.25,711.98
80.26,719.33
80.27,676.97
80.28,752.43
80.29,651.2
80.3,723.93
80.31,774.49
80.32,683.16
80.33,733.57
80.34,716.97
80.35,709.33
80.36,712.64
80.37,719.66
80.38,712.12
80.39,784.37
80.4,720.43
80.41,723.69
80.42,711.92
80.43,717.8
80.44,710.92
80.45,747.26
80.46,738.25
80.47,693.82
80.48,694.8
80.49,711.67
80.5,708.3
80.51,690.88
80.52,740.13
80.53,725.63
80.54,719.67
80.55,755.44
80.56,716.45
80.57,705.09
80.58,718.92
80.59,767.85
80.6,722.09
80.61,735.29
80.62,706.97
80.63,731.09
80.64,722.5
80.65,665.37
80.66,720.42
80.67,728.28
80.68,700.31
80.69,748.49
80.7,689.6
80.71,720.29
80.72,706.32
80.73,744.63
80.74,731.54
80.75,710.86
80.76,718.37
80.77,758.29
80.78,665.94
80.79,760.71
80.8,728.96
80.81,639.82
80.82,719.7
80.83,724.89
80.84,706.34
80.85,723.68
80.86,687.69
80.87,721.01
80.88,743.1
80.89,666.11
80.9,729.66
80.91,700.81
80.92,704.05
80.93,754.62
80.94,698.28
80.95,727.32
80.96,679.6
80.97,723.99
80.98,689.11
80.99,712.84
81.0,692.39
81.01,775.6
81.02,701.43
81.03,631.2
81.04,747.85
81.05,691.31
81.06,747.41
81.07,672.62
81.08,695.65
81.09,730.55
81.1,727.43
81.11,727.74
81.12,680.85
81.13,719.05
81.14,744.75
81.15,718.24
81.16,717.47
81.17,722.38
81.18,789.69
81.19,668.68
81.2,687.34
81.21,735.32
81.22,741.2
81.23,655.19
81.24,738.42
81.25,720.35
81.26,762.89
81.27,701.27
81.28,779.54
81.29,726.07
81.3,698.01
81.31,718.23
81.32,793.46
81.33,704.38
81.34,713.13
81.35,711.64
81.36,709.91
81.37,791.47
81.38,741.96
81.39,715.9
81.4,692.08
81.41,757.6
81.42,714.55
81.43,696.14
81.44,739.1
81.45,721.35
81.46,782.33
81.47,729.19
81.48,702.61
81.49,693.96
81.5,763.14
81.51,711.69
81.52,746.26
81.53,730.67
81.54,760.36
81.55,734.47
81.56,746.27
81.57,732.66
81.58,655.35
81.59,785.96
81.6,650.92
81.61,737.43
81.62,647.58
81.63,721.54
81.64,724.45
81.65,671.78
81.66,756.14
81.67,666.8
81.68,675.39
81.69,725.66
81.7,662.18
81.71,759.36
81.72,665.14
81.73,736.98
81.74,695.67
81.75,704.31
81.76,726.04
81.77,703.78
81.78,704.95
81.79,659.9
81.8,734.71
81.81,705.72
81.82,690.41
81.83,686.93
81.84,708.32
81.85,683.66
81.86,704.6
81.87,720.63
81.88,684.61
81.89,701.49
81.9,719.84
81.91,745.54
81.92,684.41
81.93,711.73
81.94,697.59
81.95,697.61
81.96,727.49
81.97,705.02
81.98,779.42
81.99,773.56
82.0,716.06
82.01,780.74
82.02,742.39
82.03,728.83
82.04,645.91
82.05,758.51
82.06,670.7
82.07,757.27
82.08,718.76
82.09,684.53
82.1,752.6
82.11,734.52
82.12,701.39
82.13,766.42
82.14,771.43
82.15,663.85
82.16,763.6
82.17,811.16
82.18,709.4
82.19,714.48
82.2,696.44
82.21,732.64
82.22,767.86
82.23,702.72
82.24,807.32
82.25,743.41
82.26,708.69
82.27,725.02
82.28,749.62
82.29,697.43
82.3,779.46
82.31,724.94
82.32,701.21
82.33,715.92
82.34,741.35
82.35,736.81
82.36,737.37
82.37,697.78
82.38,694.96
82.39,715.28
82.4,727.45
82.41,698.09
82.42,720.29
82.43,743.43
82.44,647.63
82.45,764.33
82.46,723.32
82.47,668.01
82.48,698.96
82.49,745.91
82.5,674.02
82.51,702.93
82.52,713.17
82.53,739.82
82.54,720.96
82.55,687.07
82.56,701.49
82.57,720.43
82.58,683.3
82.59,732.72
82.6,707.98
82.61,737.27
82.62,680.8
82.63,711.36
82.64,732.24
82.65,709.53
82.66,703.82
82.67,734.22
82.68,696.08
82.69,668.76
82.7,722.52
82.71,720.03
82.72,749.94
82.73,727.32
82.74,676.03
82.75,741.7
82.76,707.77
82.77,684.89
82.78,729.74
82.79,717.21
82.8,760.73
82.81,693.79
82.82,648.82
82.83,757.28
82.84,672.63
82.85,677.64
82.86,725.89
82.87,682.91
82.88,690.21
82.89,717.64
82.9,685.32
82.91,728.39
82.92,727.85
82.93,709.95
82.94,669.44
82.95,750.48
82.96,697.18
82.97,744.69
82.98,729.1
82.99,729.3
83.0,716.87
83.01,651.8
83.02,734.01
83.03,682.41
83.04,744.31
83.05,713.8
83.06,713.25
83.07,689.15
83.08,714.32
83.09,730.66
83.1,701.13
83.11,721.43
83.12,726.39
83.13,692.91
83.14,765.65
83.15,700.79
83.16,727.55
83.17,746.36
83.18,725.89
83.19,680.31
83.2,767.38
83.21,735.96
83.22,691.07
83.23,741.77
83.24,675.63
83.25,713.83
83.26,669.23
83.27,720.35
83.28,729.09
83.29,664.63
83.3,651.2
83.31,681.05
83.32,689.38
83.33,722.83
83.34,743.94
83.35,698.13
83.36,677.55
83.37,697.48
83.38,785.18
83.39,736.63
83.4,665.86
83.41,717.66
83.42,735.74
83.43,725.91
83.44,714.44
83.45,741.46
83.46,708.45
83.47,745.91
83.48,685.63
83.49,751.48
83.5,692.73
83.51,726.89
83.52,707.24
83.53,727.67
83.54,708.49
83.55,699.26
83.56,727.76
83.57,687.69
83.58,731.63
83.59,720.95
83.6,686.27
83.61,745.22
83.62,670.51
83.63,738.56
83.64,701.53
83.65,686.13
83.66,703.42
83.67,763.35
83.68,691.74
83.69,757.51
83.7,739.7
83.71,696.87
83.72,754.99
83.73,700.47
83.74,721.94
83.75,687.91
83.76,724.6
83.77,687.44
83.78,760.13
83.79,717.52
83.8,689.4
83.81,704.6
83.82,705.78
83.83,737.41
83.84,724.74
83.85,770.32
83.86,729.62
83.87,717.68
83.88,709.37
83.89,714.62
83.9,693.36
83.91,762.16
83.92,700.93
83.93,714.13
83.94,751.1
83.95,737.79
83.96,751.23
83.97,713.17
83.98,705.28
83.99,746.33
84.0,722.92
84.01,675.69
84.02,763.78
84.03,765.86
84.04,704.07
84.05,723.98
84.06,767.79
84.07,703.16
84.08,703.19
84.09,723.19
84.1,687.43
84.11,738.56
84.12,737.8
84.13,703.49
84.14,721.12
84.15,700.21
84.16,727.21
84.17,699.9
84.18,681.06
84.19,762.05
84.2,740.27
84.21,716.67
84.22,694.04
84.23,750.58
84.24,720.25
84.25,746.55
84.26,718.95
84.27,709.91
84.28,735.47
84.29,719.09
84.3,733.94
84.31,716.48
84.32,734.48
84.33,791.79
84.34,707.18
84.35,679.71
84.36,750.79
84.37,741.56
84.38,685.58
84.39,715.99
84.4,715.33
84.41,749.69
84.42,701.59
84.43,742.91
84.44,680.55
84.45,686.38
84.46,713.99
84.47,696.07
84.48,731.54
84.49,715.49
84.5,718.5
84.51,701.38
84.52,722.28
84.53,717.17
84.54,737.69
84.55,730.93
84.56,699.68
84.57,729.78
84.58,697.13
84.59,746.66
84.6,746.63
84.61,723.13
84.62,684.68
84.63,754.31
84.64,730.41
84.65,688.26
84.66,756.35
84.67,722.13
84.68,704.22
84.69,721.29
84.7,722.8
84.71,750.3
84.72,674.18
84.73,715.22
84.74,743.94
84.75,688.71
84.76,715.15
84.77,742.9
84.78,638.86
84.79,707.28
84.8,742.62
84.81,719.86
84.82,728.25
84.83,739.85
84.84,764.9
84.85,711.13
84.86,733.55
84.87,722.46
84.88,738.22
84.89,763.3
84.9,732.56
84.91,762.39
84.92,737.49
84.93,712.9
84.94,757.41
84.95,709.0
84.96,725.83
84.97,752.28
84.98,685.03
84.99,716.61
85.0,786.42
85.01,694.48
85.02,751.84
85.03,755.4
85.04,700.71
85.05,726.2
85.06,770.8
85.07,703.91
85.08,747.29
85.09,701.56
85.1,702.19
85.11,729.96
85.12,693.96
85.13,716.04
85.14,726.28
85.15,700.51
85.16,731.02
85.17,728.73
85.18,745.19
85.19,693.87
85.2,765.01
85.21,706.71
85.22,720.59
85.23,681.45
85.24,727.62
85.25,741.53
85.26,681.73
85.27,734.94
85.28,717.08
85.29,708.35
85.3,707.58
85.31,734.93
85.32,704.96
85.33,749.37
85.34,681.6
85.35,683.84
85.36,740.07
85.37,693.4
85.38,757.06
85.39,723.45
85.4,672.02
85.41,751.95
85.42,695.38
85.43,703.55
85.44,722.5
85.45,730.2
85.46,719.9
85.47,707.59
85.48,730.44
85.49,720.63
85.5,677.63
85.51,690.74
85.52,737.88
85.53,766.11
85.54,705.58
85.55,732.64
85.56,747.35
85.57,721.52
85.58,717.17
85.59,691.61
85.6,733.5
85.61,688.61
85.62,741.07
85.63,757.34
85.64,717.74
85.65,698.84
85.66,723.31
85.67,714.33
85.68,764.79
85.69,689.48
85.7,748.74
85.71,737.64
85.72,683.57
85.73,687.9
85.74,743.97
85.75,707.27
85.76,747.52
85.77,713.53
85.78,673.25
85.79,750.65
85.8,701.04
85.81,739.56
85.82,710.5
85.83,705.65
85.84,702.17
85.85,703.01
85.86,766.78
85.87,688.64
85.88,730.46
85.89,703.94
85.9,724.01
85.91,708.32
85.92,708.0
85.93,711.5
85.94,725.84
85.95,757.17
85.96,712.61
85.97,668.86
85.98,676.1
85.99,720.92
86.0,723.0
86.01,663.37
86.02,763.47
86.03,687.76
86.04,730.44
86.05,680.5
86.06,753.1
86.07,649.27
86.08,728.58
86.09,708.88
86.1,688.11
86.11,720.31
86.12,705.89
86.13,707.11
86.14,763.91
86.15,667.51
86.16,734.47
86.17,691.67
86.18,740.77
86.19,713.7
86.2,704.05
86.21,728.85
86.22,704.66
86.23,699.6
86.24,731.18
86.25,720.85
86.26,745.09
86.27,715.47
86.28,708.05
86.29,736.18
86.3,673.05
86.31,797.76
86.32,693.29
86.33,699.67
86.34,688.54
86.35,773.4
86.36,674.53
86.37,666.01
86.38,726.33
86.39,702.95
86.4,724.34
86.41,718.0
86.42,713.43
86.43,680.2
86.44,696.71
86.45,742.21
86.46,721.03
86.47,720.8
86.48,728.73
86.49,715.47
86.5,729.04
86.51,679.12
86.52,743.79
86.53,709.44
86.54,728.45
86.55,706.06
86.56,778.93
86.57,710.75
86.58,710.21
86.59,696.37
86.6,740.4
86.61,668.39
86.62,737.6
86.63,723.45
86.64,685.94
86.65,782.09
86.66,663.87
86.67,726.71
86.68,761.99
86.69,658.89
86.7,748.38
86.71,726.75
86.72,700.88
86.73,744.53
86.74,656.5
86.75,802.87
86.76,696.58
86.77,701.56
86.78,791.41
86.79,667.32
86.8,727.03
86.81,776.14
86.82,717.19
86.83,671.11
86.84,743.28
86.85,708.79
86.86,693.16
86.87,748.03
86.88,772.31
86.89,727.14
86.9,703.04
86.91,738.67
86.92,760.29
86.93,691.46
86.94,771.14
86.95,752.01
86.96,724.58
86.97,694.58
86.98,759.75
86.99,757.26
87.0,727.67
87.01,679.34
87.02,715.16
87.03,751.61
87.04,719.7
87.05,736.5
87.06,722.43
87.07,668.98
87.08,781.16
87.09,690.89
87.1,702.1
87.11,800.52
87.12,706.95
87.13,759.17
87.14,685.96
87.15,758.21
87.16,740.6
87.17,663.33
87.18,794.32
87.19,712.75
87.2,714.12
87.21,835.79
87.22,689.56
87.23,726.75
87.24,745.82
87.25,734.16
87.26,704.13
87.27,828.92
87.28,715.45
87.29,734.07
87.3,718.78
87.31,714.26
87.32,796.66
87.33,682.4
87.34,737.32
87.35,729.15
87.36,721.28
87.37,676.83
87.38,764.02
87.39,733.79
87.4,708.35
87.41,733.62
87.42,716.44
87.43,724.72
87.44,690.69
87.45,754.84
87.46,741.14
87.47,668.51
87.48,733.48
87.49,740.91
87.5,692.81
87.51,733.9
87.52,701.5
87.53,710.83
87.54,753.05
87.55,685.26
87.56,724.8
87.57,758.29
87.58,688.94
87.59,734.73
87.6,711.94
87.61,716.57
87.62,739.55
87.63,630.23
87.64,718.82
87.65,755.78
87.66,706.73
87.67,725.46
87.68,782.11
87.69,690.48
87.7,726.15
87.71,730.69
87.72,736.15
87.73,705.46
87.74,677.78
87.75,746.37
87.76,659.43
87.77,770.74
87.78,709.17
87.79,716.05
87.8,772.84
87.81,710.82
87.82,674.07
87.83,719.7
87.84,731.55
87.85,731.86
87.86,761.04
87.87,685.62
87.88,746.61
87.89,733.21
87.9,708.95
87.91,750.57
87.92,718.97
87.93,666.16
87.94,753.98
87.95,725.83
87.96,702.68
87.97,721.58
87.98,750.16
87.99,694.65
88.0,678.14
88.01,741.87
88.02,708.51
88.03,742.82
88.04,689.31
88.05,767.49
88.06,731.66
88.07,639.1
88.08,753.2
88.09,736.72
88.1,678.69
88.11,745.3
88.12,750.5
88.13,713.29
88.14,736.61
88.15,745.22
88.16,703.93
88.17,717.02
88.18,691.01
88.19,710.49
88.2,698.7
88.21,713.08
88.22,725.81
88.23,743.61
88.24,678.63
88.25,711.21
88.26,730.62
88.27,710.93
88.28,712.44
88.29,750.45
88.3,723.54
88.31,709.38
88.32,715.55
88.33,691.68
88.34,801.73
88.35,640.17
88.36,762.34
88.37,697.52
88.38,738.86
88.39,702.66
88.4,763.61
88.41,686.64
88.42,667.18
88.43,712.62
88.44,694.37
88.45,742.53
88.46,716.32
88.47,715.79
88.48,671.84
88.49,729.93
88.5,714.57
88.51,698.84
88.52,728.14
88.53,722.02
88.54,763.38
88.55,711.98
88.56,702.43
88.57,755.95
88.58,683.62
88.59,750.27
88.6,672.04
88.61,715.17
88.62,725.0
88.63,744.06
88.64,737.24
88.65,682.02
88.66,734.73
88.67,701.42
88.68,730.96
88.69,731.21
88.7,674.6
88.71,652.69
88.72,683.06
88.73,707.98
88.74,792.85
88.75,697.94
88.76,725.83
88.77,666.02
88.78,716.08
88.79,722.77
88.8,676.49
88.81,714.6
88.82,681.64
88.83,723.41
88.84,762.68
88.85,623.81
88.86,716.72
88.87,724.56
88.88,705.05
88.89,743.82
88.9,731.5
88.91,627.96
88.92,714.4
88.93,706.2
88.94,734.35
88.95,744.0
88.96,707.05
88.97,652.47
88.98,711.63
88.99,726.97
89.0,698.16
89.01,725.75
89.02,728.54
89.03,730.86
89.04,747.15
89.05,669.02
89.06,728.47
89.07,749.55
89.08,722.27
89.09,697.92
89.1,734.27
89.11,771.93
89.12,677.92
89.13,779.44
89.14,696.93
89.15,701.32
89.16,734.57
89.17,703.99
89.18,700.13
89.19,714.89
89.2,706.53
89.21,705.32
89.22,727.24
89.23,709.56
89.24,698.71
89.25,725.16
89.26,674.09
89.27,717.85
89.28,718.91
89.29,713.57
89.3,712.38
89.31,729.9
89.32,746.81
89.33,672.02
89.34,707.71
89.35,718.12
89.36,736.47
89.37,726.93
89.38,730.59
89.39,728.52
89.4,723.32
89.41,692.96
89.42,734.29
89.43,712.06
89.44,735.73
89.45,735.77
89.46,712.74
89.47,641.23
89.48,762.56
89.49,707.57
89.5,727.43
89.51,760.58
89.52,657.5
89.53,756.88
89.54,698.99
89.55,723.01
89.56,729.78
89.57,716.04
89.58,718.26
89.59,740.22
89.6,729.65
89.61,657.71
89.62,773.59
89.63,631.83
89.64,748.87
89.65,737.56
89.66,675.38
89.67,678.9
89.68,755.95
89.69,635.76
89.7,734.74
89.71,749.09
89.72,666.23
89.73,778.95
89.74,744.06
89.75,712.11
89.76,723.51
89.77,745.38
89.78,719.25
89.79,748.06
89.8,684.14
89.81,704.84
89.82,744.65
89.83,702.52
89.84,723.79
89.85,698.43
89.86,749.42
89.87,737.05
89.88,704.45
89.89,715.32
89.9,759.26
89.91,718.29
89.92,721.34
89.93,773.73
89.94,727.53
89.95,741.83
89.96,675.12
89.97,746.9
89.98,742.19
89.99,728.37
90.0,752.74
90.01,716.42
90.02,709.2
90.03,776.97
90.04,677.51
90.05,717.75
90.06,754.47
90.07,751.37
90.08,789.4
90.09,689.4
90.1,788.38
90.11,759.75
90.12,664.81
90.13,673.46
90.14,727.14
90.15,783.0
90.16,660.96
90.17,733.78
90.18,722.55
90.19,715.29
90.2,729.62
90.21,794.13
90.22,695.6
90.23,758.6
90.24,687.32
90.25,730.82
90.26,762.68
90.27,704.36
90.28,751.87
90.29,773.56
90.3,721.22
90.31,701.29
90.32,720.71
90.33,757.56
90.34,718.13
90.35,601.37
90.36,745.31
90.37,714.57
90.38,737.04
90.39,719.44
90.4,747.59
90.41,736.27
90.42,749.62
90.43,737.77
90.44,699.87
90.45,739.54
90.46,694.84
90.47,715.23
90.48,722.19
90.49,722.87
90.5,697.61
90.51,690.57
90.52,732.99
90.53,746.53
90.54,753.19
90.55,669.27
90.56,718.02
90.57,799.23
90.58,657.93
90.59,777.42
90.6,698.38
90.61,718.28
90.62,706.27
90.63,714.83
90.64,743.49
90.65,674.92
90.66,756.81
90.67,767.06
90.68,709.79
90.69,714.28
90.7,707.74
90.71,704.24
90.72,698.32
90.73,756.34
90.74,722.07
90.75,705.35
90.76,735.34
90.77,720.52
90.78,688.78
90.79,768.51
90.8,719.72
90.81,736.99
90.82,691.26
90.83,734.44
90.84,740.55
90.85,690.14
90.86,754.2
90.87,696.11
90.88,691.59
90.89,766.75
90.9,675.23
90.91,755.48
90.92,753.11
90.93,689.46
90.94,699.58
90.95,716.07
90.96,747.36
90.97,722.79
90.98,693.44
90.99,739.33
91.0,687.21
91.01,730.7
91.02,720.26
91.03,720.15
91.04,757.99
91.05,700.51
91.06,679.52
91.07,700.22
91.08,754.4
91.09,701.74
91.1,721.6
91.11,679.8
91.12,720.38
91.13,678.63
91.14,647.06
91.15,762.36
91.16,707.27
91.17,738.59
91.18,720.65
91.19,701.18
91.2,711.64
91.21,713.95
91.22,695.44
91.23,719.59
91.24,726.17
91.25,707.09
91.26,719.16
91.27,689.78
91.28,703.94
91.29,739.37
91.3,703.22
91.31,710.12
91.32,739.35
91.33,700.57
91.34,702.74
91.35,721.43
91.36,723.52
91.37,715.17
91.38,718.22
91.39,742.09
91.4,711.79
91.41,679.28
91.42,751.41
91.43,725.51
91.44,708.45
91.45,713.65
91.46,676.54
91.47,697.11
91.48,735.97
91.49,720.19
91.5,709.89
91.51,714.58
91.52,705.99
91.53,731.62
91.54,685.54
91.55,699.77
91.56,713.61
91.57,713.85
91.58,680.25
91.59,741.25
91.6,699.94
91.61,718.75
91.62,734.46
91.63,708.1
91.64,768.46
91.65,706.98
91.66,706.18
91.67,748.27
91.68,688.5
91.69,712.22
91.7,705.12
91.71,725.7
91.72,709.04
91.73,693.31
91.74,700.1
91.75,743.12
91.76,713.56
91.77,726.17
91.78,705.14
91.79,671.03
91.8,762.28
91.81,687.35
91.82,734.38
91.83,714.79
91.84,707.06
91.85,710.6
91.86,676.09
91.87,736.53
91.88,710.34
91.89,719.9
91.9,724.83
91.91,687.22
91.92,730.17
91.93,731.48
91.94,709.74
91.95,728.35
91.96,699.41
91.97,707.93
91.98,684.78
91.99,717.72
92.0,706.98
92.01,701.25
92.02,682.08
92.03,743.09
92.04,711.92
92.05,698.66
92.06,704.77
92.07,683.59
92.08,752.94
92.09,673.76
92.1,723.07
92.11,715.49
92.12,689.72
92.13,740.64
92.14,695.22
92.15,742.29
92.16,713.29
92.17,702.83
92.18,710.14
92.19,708.21
92.2,701.08
92.21,741.87
92.22,720.65
92.23,691.78
92.24,705.82
92.25,705.14
92.26,735.76
92.27,713.76
92.28,701.95
92.29,690.45
92.3,744.81
92.31,733.22
92.32,714.05
92.33,723.03
92.34,718.95
92.35,686.28
92.36,691.64
92.37,698.42
92.38,717.57
92.39,668.13
92.4,729.76
92.41,681.59
92.42,714.8
92.43,713.85
92.44,690.92
92.45,715.02
92.46,743.41
92.47,702.1
92.48,694.84
92.49,691.89
92.5,703.67
92.51,733.49
92.52,744.76
92.53,700.91
92.54,741.6
92.55,731.33
92.56,752.19
92.57,671.54
92.58,712.25
92.59,762.1
92.6,747.59
92.61,715.8
92.62,724.96
92.63,732.03
92.64,706.43
92.65,760.96
92.66,748.76
92.67,744.96
92.68,721.64
92.69,738.68
92.7,723.78
92.71,726.22
92.72,732.78
92.73,737.02
92.74,739.69
92.75,724.37
92.76,700.73
92.77,725.08
92.78,687.16
92.79,729.2
92.8,741.06
92.81,708.95
92.82,742.21
92.83,694.86
92.84,736.62
92.85,736.69
92.86,697.32
92.87,747.73
92.88,726.41
92.89,692.9
92.9,756.64
92.91,753.22
92.92,733.14
92.93,693.98
92.94,713.72
92.95,721.52
92.96,719.1
92.97,662.37
92.98,709.03
92.99,722.43
93.0,727.02
93.01,707.43
93.02,729.95
93.03,681.59
93.04,708.91
93.05,697.67
93.06,692.32
93.07,749.09
93.08,657.12
93.09,723.66
93.1,721.27
93.11,660.29
93.12,755.65
93.13,704.5
93.14,695.97
93.15,669.56
93.16,754.56
93.17,702.15
93.18,705.04
93.19,693.57
93.2,693.87
93.21,706.53
93.22,713.77
93.23,715.23
93.24,715.27
93.25,751.36
93.26,683.36
93.27,745.8
93.28,702.25
93.29,725.42
93.3,657.82
93.31,730.47
93.32,707.25
93.33,680.61
93.34,712.34
93.35,749.26
93.36,685.33
93.37,746.07
93.38,693.26
93.39,698.01
93.4,769.05
93.41,732.88
93.42,718.9
93.43,761.19
93.44,703.3
93.45,728.26
93.46,709.87
93.47,777.18
93.48,764.78
93.49,745.16
93.5,681.0
93.51,741.29
93.52,704.54
93.53,718.05
93.54,754.68
93.55,742.38
93.56,708.33
93.57,694.98
93.58,766.4
93.59,673.01
93.6,784.38
93.61,677.02
93.62,769.14
93.63,707.96
93.64,723.13
93.65,728.75
93.66,697.43
93.67,723.78
93.68,744.12
93.69,677.93
93.7,778.31
93.71,749.64
93.72,674.35
93.73,688.96
93.74,752.07
93.75,747.15
93.76,698.13
93.77,771.05
93.78,716.0
93.79,753.17
93.8,723.17
93.81,672.33
93.82,730.8
93.83,726.75
93.84,700.94
93.85,713.52
93.86,689.51
93.87,703.05
93.88,716.62
93.89,733.72
93.9,682.07
93.91,687.56
93.92,736.06
93.93,694.58
93.94,692.81
93.95,724.46
93.96,659.31
93.97,794.4
93.98,663.52
93.99,812.84
94.0,684.12
94.01,642.08
94.02,758.93
94.03,727.83
94.04,709.06
94.05,798.4
94.06,705.41
94.07,695.72
94.08,724.59
94.09,747.11
94.1,715.41
94.11,748.1
94.12,647.81
94.13,746.47
94.14,657.62
94.15,795.51
94.16,667.27
94.17,762.43
94.18,701.13
94.19,694.13
94.2,716.42
94.21,737.09
94.22,719.03
94.23,743.09
94.24,721.67
94.25,716.76
94.26,712.21
94.27,652.14
94.28,723.67
94.29,717.91
94.3,684.65
94.31,720.38
94.32,738.67
94.33,752.3
94.34,682.88
94.35,758.71
94.36,718.61
94.37,704.35
94.38,684.43
94.39,703.57
94.4,681.92
94.41,723.58
94.42,744.65
94.43,686.41
94.44,685.53
94.45,744.12
94.46,713.0
94.47,699.82
94.48,808.41
94.49,673.12
94.5,751.56
94.51,762.83
94.52,704.96
94.53,724.0
94.54,703.06
94.55,763.26
94.56,666.38
94.57,776.08
94.58,682.7
94.59,696.47
94.6,721.34
94.61,670.52
94.62,718.79
94.63,728.16
94.64,700.55
94.65,762.04
94.66,700.55
94.67,716.33
94.68,777.99
94.69,672.57
94.7,700.76
94.71,765.45
94.72,684.35
94.73,706.42
94.74,717.97
94.75,707.14
94.76,739.95
94.77,684.99
94.78,726.14
94.79,724.28
94.8,717.66
94.81,711.44
94.82,745.27
94.83,676.11
94.84,744.0
94.85,702.58
94.86,692.41
94.87,740.14
94.88,687.91
94.89,719.81
94.9,743.14
94.91,717.62
94.92,694.15
94.93,705.72
94.94,695.15
94.95,698.28
94.96,713.14
94.97,673.17
94.98,725.32
94.99,705.64
95.0,742.71
95.01,719.14
95.02,676.32
95.03,711.72
95.04,738.73
95.05,695.1
95.06,728.97
95.07,673.63
95.08,772.86
95.09,664.58
95.1,732.75
95.11,727.09
95.12,646.63
95.13,755.17
95.14,676.36
95.15,735.29
95.16,723.42
95.17,704.63
95.18,685.8
95.19,735.56
95.2,705.71
95.21,738.03
95.22,720.7
95.23,656.71
95.24,726.33
95.25,792.89
95.26,679.05
95.27,711.58
95.28,748.49
95.29,671.79
95.3,807.96
95.31,707.32
95.32,685.18
95.33,822.28
95.34,696.87
95.35,692.36
95.36,801.63
95.37,689.38
95.38,701.13
95.39,735.28
95.4,744.88
95.41,709.45
95.42,729.78
95.43,725.82
95.44,689.43
95.45,721.43
95.46,728.85
95.47,777.51
95.48,686.75
95.49,748.25
95.5,727.03
95.51,738.44
95.52,716.51
95.53,757.98
95.54,697.32
95.55,722.03
95.56,771.5
95.57,708.09
95.58,685.1
95.59,725.93
95.6,710.77
95.61,729.7
95.62,744.68
95.63,731.76
95.64,783.57
95.65,689.22
95.66,759.12
95.67,757.95
95.68,683.83
95.69,744.45
95.7,734.22
95.71,677.22
95.72,735.77
95.73,712.28
95.74,815.89
95.75,691.52
95.76,725.62
95.77,740.71
95.78,705.55
95.79,706.61
95.8,759.36
95.81,718.44
95.82,743.54
95.83,725.78
95.84,707.64
95.85,742.85
95.86,677.99
95.87,720.02
95.88,749.04
95.89,657.39
95.9,819.73
95.91,695.44
95.92,691.32
95.93,805.82
95.94,710.37
95.95,721.61
95.96,742.64
95.97,659.34
95.98,760.73
95.99,693.25
96.0,703.5
96.01,669.26
96.02,731.93
96.03,716.31
96.04,715.25
96.05,726.37
96.06,713.35
96.07,732.08
96.08,729.55
96.09,683.3
96.1,767.14
96.11,712.3
96.12,720.14
96.13,736.16
96.14,705.56
96.15,674.5
96.16,639.89
96.17,706.72
96.18,802.29
96.19,622.06
96.2,815.2
96.21,649.08
96.22,758.72
96.23,674.99
96.24,717.63
96.25,726.89
96.26,800.68
96.27,685.92
96.28,743.84
96.29,730.72
96.3,736.43
96.31,728.16
96.32,693.42
96.33,735.13
96.34,722.24
96.35,694.81
96.36,676.66
96.37,774.3
96.38,686.7
96.39,730.86
96.4,712.78
96.41,688.55
96.42,799.84
96.43,730.81
96.44,682.88
96.45,769.03
96.46,681.29
96.47,743.79
96.48,787.37
96.49,742.58
96.5,680.19
96.51,755.5
96.52,726.34
96.53,699.33
96.54,762.14
96.55,742.94
96.56,711.94
96.57,685.18
96.58,697.4
96.59,769.75
96.6,667.77
96.61,708.19
96.62,783.46
96.63,726.52
96.64,742.72
96.65,687.85
96.66,718.88
96.67,738.0
96.68,687.83
96.69,708.44
96.7,693.25
96.71,711.56
96.72,754.66
96.73,713.47
96.74,756.13
96.75,670.34
96.76,714.9
96.77,725.26
96.78,741.28
96.79,681.75
96.8,711.97
96.81,720.61
96.82,717.64
96.83,751.52
96.84,699.09
96.85,773.4
96.86,706.57
96.87,688.94
96.88,718.23
96.89,792.75
96.9,716.1
96.91,683.44
96.92,737.75
96.93,695.64
96.94,734.66
96.95,708.95
96.96,691.97
96.97,731.17
96.98,693.35
96.99,725.79
97.0,677.68
97.01,669.34
97.02,750.85
97.03,700.82
97.04,711.42
97.05,735.37
97.06,686.18
97.07,703.19
97.08,747.19
97.09,663.44
97.1,733.16
97.11,696.13
97.12,734.83
97.13,733.6
97.14,661.02
97.15,708.45
97.16,716.08
97.17,716.96
97.18,692.14
97.19,725.1
97.2,736.07
97.21,722.33
97.22,698.12
97.23,718.75
97.24,686.3
97.25,719.91
97.26,757.28
97.27,699.4
97.28,727.2
97.29,726.42
97.3,695.15
97.31,718.98
97.32,708.17
97.33,705.78
97.34,714.28
97.35,722.34
97.36,679.45
97.37,675.6
97.38,747.46
97.39,669.91
97.4,688.77
97.41,728.77
97.42,736.3
97.43,719.61
97.44,672.73
97.45,695.76
97.46,730.69
97.47,766.0
97.48,689.93
97.49,741.26
97.5,693.36
97.51,708.04
97.52,723.3
97.53,696.52
97.54,722.0
97.55,704.15
97.56,678.39
97.57,759.61
97.58,709.82
97.59,702.35
97.6,746.06
97.61,710.78
97.62,676.98
97.63,717.91
97.64,772.0
97.65,733.83
97.66,729.18
97.67,736.65
97.68,677.49
97.69,758.63
97.7,661.12
97.71,724.09
97.72,745.32
97.73,681.05
97.74,716.93
97.75,747.35
97.76,746.38
97.77,672.39
97.78,762.22
97.79,712.46
97.8,694.23
97.81,722.91
97.82,760.91
97.83,741.28
97.84,675.69
97.85,729.37
97.86,764.19
97.87,679.99
97.88,701.89
97.89,803.33
97.9,728.65
97.91,707.29
97.92,685.07
97.93,746.09
97.94,713.27
97.95,751.79
97.96,718.25
97.97,726.57
97.98,714.47
97.99,725.34
98.0,685.85
98.01,697.13
98.02,701.04
98.03,736.55
98.04,678.01
98.05,749.02
98.06,725.88
98.07,698.99
98.08,698.82
98.09,719.19
98.1,714.74
98.11,711.6
98.12,742.41
98.13,738.2
98.14,672.44
98.15,729.93
98.16,718.86
98.17,728.61
98.18,752.01
98.19,763.08
98.2,654.08
98.21,782.14
98.22,646.76
98.23,733.85
98.24,731.72
98.25,736.61
98.26,684.1
98.27,737.06
98.28,750.9
98.29,670.85
98.3,741.65
98.31,704.69
98.32,697.56
98.33,720.92
98.34,718.65
98.35,707.84
98.36,719.04
98.37,713.94
98.38,738.25
98.39,703.03
98.4,715.2
98.41,729.36
98.42,700.49
98.43,726.87
98.44,722.77
98.45,737.06
98.46,702.33
98.47,698.25
98.48,653.68
98.49,725.22
98.5,805.06
98.51,710.08
98.52,728.12
98.53,780.99
98.54,721.47
98.55,753.11
98.56,701.94
98.57,709.83
